OOIBase32 Version 2.0.6.5 Data File
++++++++++++++++++++++++++++++++++++
Date: 11-17-2016, 11:07:58
User: Valued Ocean Optics Customer
Spectrometer Serial Number: USB4C01507
Spectrometer Channel: Master
Integration Time (msec): 49
Spectra Averaged: 25
Boxcar Smoothing: 5
Correct for Electrical Dark: Enabled
Time Normalized: Disabled
Dual-beam Reference: Disabled
Reference Channel: Master
Temperature: Not acquired
Spectrometer Type: S4000
ADC Type: USB4000
Number of Pixels in File: 3648
Graph Title: 
>>>>>Begin Spectral Data<<<<<
178.53	1531.314
178.74	2158.477
178.96	102.240
179.18	-0.094
179.39	630.486
179.61	-14.026
179.82	27.712
180.04	218.143
180.25	146.245
180.47	28.861
180.69	59.192
180.90	-705.166
181.12	274.521
181.33	204.194
181.55	27.519
181.76	771.323
181.98	102.617
182.20	-314.424
182.41	15.770
182.63	-26.314
182.84	-16.288
183.06	-6.790
183.27	-0.608
183.49	9.813
183.71	-1.240
183.92	-7.348
184.14	-16.086
184.35	-7.183
184.57	-15.133
184.78	1.144
185.00	5.940
185.21	3.934
185.43	5.096
185.65	7.942
185.86	-1.801
186.08	9.765
186.29	16.493
186.51	21.584
186.72	14.905
186.94	20.231
187.15	20.888
187.37	20.966
187.58	22.542
187.80	20.267
188.02	17.948
188.23	18.739
188.45	15.294
188.66	19.419
188.88	20.423
189.09	24.989
189.31	24.588
189.52	19.071
189.74	19.502
189.95	18.812
190.17	18.886
190.38	18.136
190.60	22.528
190.82	31.943
191.03	22.961
191.25	18.142
191.46	9.878
191.68	7.534
191.89	8.976
192.11	4.507
192.32	1.623
192.54	-4.677
192.75	-0.035
192.97	-1.606
193.18	-0.722
193.40	4.129
193.61	2.460
193.83	8.070
194.04	5.415
194.26	9.975
194.48	7.190
194.69	12.491
194.91	11.475
195.12	9.090
195.34	10.589
195.55	7.050
195.77	-3.923
195.98	2.385
196.20	-0.725
196.41	0.604
196.63	-7.381
196.84	-4.608
197.06	-6.045
197.27	-1.843
197.49	-2.535
197.70	0.664
197.92	-0.429
198.13	7.252
198.35	-0.034
198.56	-0.898
198.78	-6.392
198.99	-4.756
199.21	-6.101
199.42	-6.549
199.64	-2.774
199.85	-2.193
200.07	-5.838
200.28	-6.355
200.50	-10.068
200.71	-0.682
200.93	2.731
201.14	3.403
201.36	4.267
201.57	5.303
201.79	6.903
202.00	1.200
202.22	2.681
202.43	3.260
202.65	1.007
202.86	6.179
203.08	-0.541
203.29	-1.621
203.51	0.740
203.72	1.156
203.94	4.632
204.15	6.818
204.37	10.844
204.58	8.143
204.80	10.247
205.01	16.041
205.22	14.302
205.44	16.070
205.65	15.536
205.87	13.834
206.08	17.086
206.30	17.276
206.51	12.027
206.73	10.352
206.94	7.708
207.16	6.245
207.37	1.716
207.59	-1.623
207.80	1.762
208.02	4.227
208.23	8.716
208.45	5.776
208.66	1.211
208.88	5.981
209.09	6.895
209.30	10.459
209.52	6.020
209.73	7.625
209.95	11.923
210.16	5.786
210.38	7.016
210.59	3.901
210.81	1.400
211.02	2.517
211.24	2.005
211.45	2.284
211.66	3.131
211.88	4.718
212.09	1.412
212.31	2.138
212.52	5.018
212.74	1.387
212.95	0.299
213.17	4.068
213.38	5.604
213.60	6.028
213.81	4.943
214.02	4.586
214.24	5.616
214.45	4.466
214.67	1.588
214.88	0.957
215.10	3.027
215.31	4.923
215.53	3.147
215.74	2.376
215.95	3.593
216.17	3.720
216.38	3.674
216.60	0.220
216.81	4.834
217.03	3.933
217.24	4.023
217.45	2.351
217.67	0.577
217.88	1.787
218.10	1.917
218.31	-0.845
218.53	-0.355
218.74	-1.166
218.95	-2.387
219.17	-6.808
219.38	-5.888
219.60	-2.608
219.81	-1.349
220.03	0.713
220.24	-0.612
220.45	-1.410
220.67	-0.162
220.88	0.938
221.10	1.369
221.31	3.175
221.53	3.855
221.74	3.136
221.95	0.731
222.17	-0.072
222.38	0.212
222.60	0.683
222.81	0.895
223.02	0.764
223.24	0.096
223.45	0.578
223.67	0.439
223.88	0.616
224.09	2.017
224.31	3.595
224.52	4.403
224.74	3.172
224.95	3.991
225.16	3.620
225.38	3.458
225.59	3.274
225.81	2.719
226.02	2.929
226.23	2.995
226.45	2.482
226.66	1.917
226.88	2.046
227.09	2.646
227.30	2.227
227.52	2.556
227.73	2.498
227.95	2.516
228.16	2.576
228.37	2.561
228.59	2.625
228.80	2.662
229.02	2.671
229.23	2.677
229.44	2.640
229.66	2.635
229.87	2.585
230.08	2.521
230.30	2.514
230.51	2.593
230.73	2.742
230.94	2.654
231.15	2.524
231.37	2.577
231.58	2.383
231.80	2.323
232.01	2.536
232.22	2.641
232.44	2.929
232.65	3.051
232.86	2.525
233.08	2.242
233.29	2.334
233.51	2.596
233.72	2.621
233.93	2.486
234.15	2.440
234.36	2.275
234.57	2.140
234.79	2.203
235.00	2.100
235.21	2.437
235.43	2.700
235.64	2.518
235.86	2.356
236.07	2.135
236.28	2.224
236.50	1.992
236.71	2.308
236.92	2.430
237.14	2.305
237.35	2.358
237.56	2.546
237.78	2.078
237.99	2.399
238.20	2.391
238.42	2.721
238.63	2.643
238.84	3.202
239.06	2.913
239.27	2.519
239.48	2.488
239.70	2.576
239.91	2.264
240.13	2.159
240.34	2.155
240.55	2.236
240.77	2.253
240.98	2.292
241.19	2.190
241.41	2.139
241.62	2.206
241.83	2.164
242.05	2.131
242.26	2.275
242.47	2.336
242.69	2.271
242.90	2.282
243.11	2.204
243.33	2.182
243.54	2.140
243.75	2.154
243.97	2.208
244.18	2.311
244.39	2.331
244.61	1.969
244.82	2.027
245.03	1.899
245.24	1.960
245.46	2.047
245.67	2.176
245.88	2.191
246.10	2.196
246.31	2.188
246.52	2.108
246.74	2.083
246.95	2.155
247.16	2.175
247.38	2.241
247.59	2.180
247.80	2.220
248.02	2.222
248.23	2.221
248.44	2.256
248.66	2.232
248.87	2.263
249.08	2.343
249.29	2.385
249.51	2.362
249.72	2.380
249.93	2.536
250.15	2.421
250.36	2.260
250.57	2.257
250.79	2.300
251.00	2.361
251.21	2.477
251.42	2.361
251.64	2.300
251.85	2.338
252.06	2.362
252.28	2.284
252.49	2.264
252.70	2.248
252.91	2.231
253.13	2.117
253.34	2.126
253.55	2.077
253.77	2.115
253.98	2.273
254.19	2.061
254.40	1.836
254.62	1.913
254.83	1.758
255.04	1.921
255.26	1.857
255.47	1.855
255.68	1.885
255.89	1.947
256.11	1.884
256.32	1.669
256.53	1.861
256.75	1.879
256.96	1.915
257.17	2.162
257.38	2.148
257.60	2.281
257.81	2.285
258.02	2.238
258.23	2.073
258.45	2.105
258.66	2.136
258.87	2.043
259.09	2.027
259.30	1.971
259.51	1.913
259.72	1.921
259.94	1.897
260.15	1.929
260.36	1.986
260.57	1.986
260.79	1.970
261.00	1.917
261.21	1.945
261.42	1.999
261.64	2.030
261.85	2.042
262.06	1.997
262.27	2.059
262.49	1.949
262.70	1.888
262.91	2.008
263.12	1.990
263.34	2.073
263.55	2.045
263.76	1.908
263.97	2.041
264.19	2.080
264.40	2.082
264.61	1.970
264.82	2.036
265.04	1.973
265.25	1.939
265.46	1.903
265.67	1.871
265.88	1.919
266.10	1.924
266.31	1.808
266.52	1.844
266.73	1.956
266.95	1.987
267.16	1.982
267.37	1.961
267.58	1.919
267.80	2.035
268.01	2.086
268.22	2.080
268.43	2.068
268.64	2.148
268.86	2.090
269.07	1.989
269.28	1.892
269.49	1.840
269.71	1.867
269.92	1.785
270.13	1.782
270.34	1.782
270.55	1.806
270.77	1.942
270.98	1.950
271.19	2.031
271.40	2.029
271.61	1.955
271.83	1.969
272.04	1.869
272.25	1.982
272.46	1.947
272.68	1.948
272.89	1.905
273.10	1.869
273.31	1.785
273.52	1.738
273.74	1.688
273.95	1.703
274.16	1.768
274.37	1.828
274.58	1.827
274.80	1.784
275.01	1.757
275.22	1.819
275.43	1.884
275.64	1.974
275.86	1.944
276.07	1.927
276.28	2.109
276.49	2.006
276.70	1.955
276.91	1.882
277.13	1.839
277.34	1.896
277.55	1.876
277.76	1.736
277.97	1.662
278.19	1.667
278.40	1.751
278.61	1.710
278.82	1.744
279.03	1.715
279.24	1.707
279.46	1.820
279.67	1.780
279.88	1.731
280.09	1.798
280.30	1.888
280.52	2.008
280.73	2.010
280.94	1.970
281.15	1.961
281.36	2.076
281.57	2.165
281.79	2.195
282.00	2.141
282.21	2.095
282.42	2.087
282.63	2.088
282.84	1.993
283.06	1.979
283.27	1.983
283.48	2.066
283.69	1.975
283.90	1.919
284.11	1.835
284.32	1.887
284.54	1.917
284.75	1.861
284.96	1.759
285.17	1.807
285.38	1.822
285.59	1.829
285.81	1.835
286.02	1.903
286.23	1.865
286.44	1.946
286.65	1.916
286.86	1.881
287.07	1.799
287.29	1.798
287.50	1.801
287.71	1.827
287.92	1.827
288.13	1.753
288.34	1.736
288.55	1.805
288.77	1.745
288.98	1.714
289.19	1.760
289.40	1.871
289.61	1.957
289.82	1.837
290.03	1.779
290.24	1.787
290.46	1.724
290.67	1.769
290.88	1.775
291.09	1.750
291.30	1.805
291.51	1.864
291.72	1.860
291.93	1.831
292.15	1.941
292.36	2.076
292.57	2.011
292.78	2.062
292.99	1.927
293.20	2.012
293.41	1.891
293.62	1.852
293.84	1.831
294.05	1.834
294.26	1.776
294.47	1.735
294.68	1.652
294.89	1.736
295.10	1.724
295.31	1.770
295.52	1.650
295.73	1.706
295.95	1.780
296.16	1.769
296.37	1.839
296.58	1.886
296.79	1.911
297.00	1.910
297.21	1.880
297.42	1.888
297.63	1.895
297.84	1.975
298.06	1.959
298.27	1.952
298.48	1.949
298.69	1.841
298.90	1.808
299.11	1.823
299.32	1.804
299.53	1.840
299.74	1.895
299.95	1.926
300.16	1.811
300.38	1.888
300.59	1.806
300.80	1.810
301.01	1.842
301.22	1.858
301.43	1.847
301.64	1.944
301.85	1.833
302.06	1.777
302.27	1.720
302.48	1.778
302.69	1.699
302.91	1.709
303.12	1.717
303.33	1.731
303.54	1.764
303.75	1.716
303.96	1.655
304.17	1.764
304.38	1.734
304.59	1.818
304.80	1.846
305.01	1.937
305.22	1.926
305.43	1.932
305.64	1.891
305.85	1.817
306.06	1.899
306.28	1.891
306.49	1.878
306.70	1.889
306.91	1.732
307.12	1.669
307.33	1.489
307.54	1.573
307.75	1.528
307.96	1.584
308.17	1.629
308.38	1.533
308.59	1.556
308.80	1.470
309.01	1.506
309.22	1.552
309.43	1.559
309.64	1.661
309.85	1.599
310.06	1.658
310.27	1.664
310.48	1.683
310.70	1.679
310.91	1.631
311.12	1.645
311.33	1.641
311.54	1.574
311.75	1.537
311.96	1.552
312.17	1.564
312.38	1.530
312.59	1.523
312.80	1.463
313.01	1.498
313.22	1.533
313.43	1.549
313.64	1.483
313.85	1.538
314.06	1.588
314.27	1.599
314.48	1.602
314.69	1.598
314.90	1.613
315.11	1.772
315.32	1.740
315.53	1.730
315.74	1.703
315.95	1.768
316.16	1.816
316.37	1.728
316.58	1.720
316.79	1.708
317.00	1.694
317.21	1.667
317.42	1.471
317.63	1.496
317.84	1.390
318.05	1.347
318.26	1.321
318.47	1.317
318.68	1.377
318.89	1.365
319.10	1.310
319.31	1.244
319.52	1.230
319.73	1.290
319.94	1.292
320.15	1.278
320.36	1.328
320.57	1.349
320.78	1.301
320.99	1.239
321.20	1.205
321.41	1.233
321.62	1.193
321.83	1.239
322.04	1.228
322.25	1.206
322.46	1.258
322.67	1.287
322.88	1.254
323.09	1.283
323.30	1.255
323.51	1.241
323.72	1.237
323.93	1.235
324.14	1.245
324.35	1.260
324.56	1.224
324.77	1.239
324.98	1.224
325.19	1.178
325.40	1.200
325.61	1.310
325.82	1.336
326.03	1.357
326.24	1.444
326.45	1.410
326.65	1.376
326.86	1.398
327.07	1.427
327.28	1.454
327.49	1.506
327.70	1.438
327.91	1.346
328.12	1.349
328.33	1.326
328.54	1.330
328.75	1.374
328.96	1.385
329.17	1.364
329.38	1.325
329.59	1.308
329.80	1.338
330.01	1.415
330.22	1.439
330.43	1.370
330.64	1.396
330.85	1.361
331.05	1.251
331.26	1.241
331.47	1.223
331.68	1.264
331.89	1.252
332.10	1.185
332.31	1.155
332.52	1.166
332.73	1.167
332.94	1.200
333.15	1.191
333.36	1.266
333.57	1.267
333.78	1.269
333.99	1.234
334.19	1.191
334.40	1.232
334.61	1.240
334.82	1.302
335.03	1.355
335.24	1.315
335.45	1.381
335.66	1.422
335.87	1.415
336.08	1.451
336.29	1.441
336.50	1.461
336.71	1.526
336.91	1.488
337.12	1.340
337.33	1.336
337.54	1.367
337.75	1.283
337.96	1.219
338.17	1.262
338.38	1.236
338.59	1.329
338.80	1.263
339.01	1.190
339.21	1.210
339.42	1.326
339.63	1.318
339.84	1.324
340.05	1.331
340.26	1.317
340.47	1.327
340.68	1.371
340.89	1.247
341.10	1.338
341.30	1.363
341.51	1.340
341.72	1.341
341.93	1.390
342.14	1.344
342.35	1.360
342.56	1.359
342.77	1.292
342.98	1.248
343.18	1.321
343.39	1.267
343.60	1.212
343.81	1.237
344.02	1.236
344.23	1.168
344.44	1.189
344.65	1.178
344.85	1.160
345.06	1.239
345.27	1.255
345.48	1.183
345.69	1.268
345.90	1.333
346.11	1.370
346.32	1.343
346.52	1.339
346.73	1.342
346.94	1.380
347.15	1.395
347.36	1.322
347.57	1.319
347.78	1.383
347.98	1.366
348.19	1.352
348.40	1.313
348.61	1.349
348.82	1.405
349.03	1.372
349.24	1.350
349.44	1.357
349.65	1.376
349.86	1.379
350.07	1.379
350.28	1.372
350.49	1.361
350.70	1.362
350.90	1.307
351.11	1.243
351.32	1.251
351.53	1.282
351.74	1.246
351.95	1.239
352.15	1.227
352.36	1.184
352.57	1.154
352.78	1.196
352.99	1.202
353.20	1.296
353.40	1.300
353.61	1.276
353.82	1.245
354.03	1.316
354.24	1.322
354.45	1.340
354.65	1.411
354.86	1.462
355.07	1.387
355.28	1.417
355.49	1.386
355.70	1.384
355.90	1.406
356.11	1.410
356.32	1.407
356.53	1.432
356.74	1.448
356.94	1.403
357.15	1.362
357.36	1.383
357.57	1.339
357.78	1.276
357.99	1.312
358.19	1.299
358.40	1.309
358.61	1.335
358.82	1.340
359.03	1.353
359.23	1.366
359.44	1.371
359.65	1.374
359.86	1.423
360.07	1.481
360.27	1.495
360.48	1.505
360.69	1.513
360.90	1.496
361.11	1.530
361.31	1.513
361.52	1.532
361.73	1.537
361.94	1.574
362.15	1.537
362.35	1.508
362.56	1.546
362.77	1.558
362.98	1.549
363.18	1.511
363.39	1.438
363.60	1.451
363.81	1.437
364.02	1.447
364.22	1.439
364.43	1.465
364.64	1.471
364.85	1.408
365.05	1.406
365.26	1.407
365.47	1.438
365.68	1.474
365.89	1.460
366.09	1.475
366.30	1.459
366.51	1.404
366.72	1.371
366.92	1.406
367.13	1.456
367.34	1.454
367.55	1.429
367.75	1.428
367.96	1.429
368.17	1.425
368.38	1.426
368.58	1.425
368.79	1.449
369.00	1.516
369.21	1.493
369.41	1.486
369.62	1.468
369.83	1.478
370.04	1.450
370.24	1.477
370.45	1.506
370.66	1.522
370.87	1.481
371.07	1.469
371.28	1.400
371.49	1.396
371.70	1.386
371.90	1.422
372.11	1.422
372.32	1.470
372.53	1.412
372.73	1.389
372.94	1.329
373.15	1.387
373.36	1.401
373.56	1.457
373.77	1.460
373.98	1.485
374.19	1.490
374.39	1.523
374.60	1.499
374.81	1.515
375.01	1.518
375.22	1.502
375.43	1.468
375.64	1.460
375.84	1.433
376.05	1.445
376.26	1.410
376.46	1.384
376.67	1.346
376.88	1.355
377.09	1.374
377.29	1.376
377.50	1.401
377.71	1.415
377.91	1.430
378.12	1.446
378.33	1.434
378.54	1.433
378.74	1.422
378.95	1.450
379.16	1.436
379.36	1.425
379.57	1.407
379.78	1.438
379.99	1.453
380.19	1.459
380.40	1.434
380.61	1.429
380.81	1.427
381.02	1.462
381.23	1.453
381.43	1.461
381.64	1.471
381.85	1.454
382.05	1.428
382.26	1.431
382.47	1.395
382.67	1.423
382.88	1.407
383.09	1.418
383.30	1.415
383.50	1.432
383.71	1.412
383.92	1.414
384.12	1.462
384.33	1.441
384.54	1.437
384.74	1.484
384.95	1.457
385.16	1.461
385.36	1.472
385.57	1.469
385.78	1.457
385.98	1.480
386.19	1.462
386.40	1.444
386.60	1.479
386.81	1.462
387.02	1.456
387.22	1.463
387.43	1.483
387.64	1.479
387.84	1.471
388.05	1.493
388.26	1.487
388.46	1.476
388.67	1.491
388.88	1.490
389.08	1.503
389.29	1.489
389.49	1.466
389.70	1.471
389.91	1.457
390.11	1.443
390.32	1.418
390.53	1.439
390.73	1.464
390.94	1.466
391.15	1.468
391.35	1.466
391.56	1.476
391.77	1.520
391.97	1.513
392.18	1.538
392.38	1.573
392.59	1.593
392.80	1.555
393.00	1.543
393.21	1.542
393.42	1.550
393.62	1.561
393.83	1.549
394.04	1.537
394.24	1.523
394.45	1.503
394.65	1.502
394.86	1.512
395.07	1.550
395.27	1.551
395.48	1.506
395.68	1.519
395.89	1.501
396.10	1.515
396.30	1.490
396.51	1.534
396.72	1.526
396.92	1.498
397.13	1.481
397.33	1.447
397.54	1.458
397.75	1.489
397.95	1.487
398.16	1.478
398.36	1.474
398.57	1.476
398.78	1.426
398.98	1.439
399.19	1.450
399.39	1.450
399.60	1.463
399.81	1.468
400.01	1.495
400.22	1.476
400.42	1.510
400.63	1.496
400.84	1.505
401.04	1.533
401.25	1.529
401.45	1.528
401.66	1.538
401.86	1.537
402.07	1.544
402.28	1.535
402.48	1.509
402.69	1.515
402.89	1.537
403.10	1.554
403.31	1.564
403.51	1.553
403.72	1.570
403.92	1.560
404.13	1.542
404.33	1.536
404.54	1.529
404.75	1.527
404.95	1.538
405.16	1.517
405.36	1.510
405.57	1.495
405.77	1.513
405.98	1.501
406.18	1.513
406.39	1.526
406.60	1.510
406.80	1.492
407.01	1.509
407.21	1.467
407.42	1.500
407.62	1.516
407.83	1.509
408.03	1.488
408.24	1.499
408.45	1.468
408.65	1.488
408.86	1.507
409.06	1.527
409.27	1.522
409.47	1.505
409.68	1.478
409.88	1.487
410.09	1.502
410.29	1.512
410.50	1.518
410.71	1.530
410.91	1.540
411.12	1.539
411.32	1.539
411.53	1.550
411.73	1.591
411.94	1.573
412.14	1.570
412.35	1.563
412.55	1.573
412.76	1.554
412.96	1.558
413.17	1.544
413.37	1.553
413.58	1.558
413.78	1.569
413.99	1.577
414.19	1.642
414.40	1.640
414.61	1.653
414.81	1.656
415.02	1.652
415.22	1.651
415.43	1.641
415.63	1.633
415.84	1.619
416.04	1.610
416.25	1.597
416.45	1.562
416.66	1.567
416.86	1.563
417.07	1.554
417.27	1.558
417.48	1.558
417.68	1.566
417.89	1.573
418.09	1.590
418.30	1.586
418.50	1.565
418.71	1.572
418.91	1.562
419.12	1.553
419.32	1.551
419.53	1.548
419.73	1.546
419.94	1.555
420.14	1.537
420.34	1.537
420.55	1.539
420.75	1.552
420.96	1.548
421.16	1.551
421.37	1.553
421.57	1.565
421.78	1.568
421.98	1.561
422.19	1.554
422.39	1.571
422.60	1.564
422.80	1.568
423.01	1.562
423.21	1.573
423.42	1.566
423.62	1.564
423.83	1.548
424.03	1.546
424.23	1.559
424.44	1.555
424.64	1.558
424.85	1.556
425.05	1.562
425.26	1.573
425.46	1.575
425.67	1.564
425.87	1.570
426.08	1.600
426.28	1.595
426.48	1.602
426.69	1.626
426.89	1.624
427.10	1.650
427.30	1.665
427.51	1.681
427.71	1.656
427.92	1.664
428.12	1.649
428.32	1.611
428.53	1.603
428.73	1.588
428.94	1.573
429.14	1.572
429.35	1.548
429.55	1.528
429.76	1.531
429.96	1.547
430.16	1.572
430.37	1.594
430.57	1.616
430.78	1.657
430.98	1.669
431.19	1.679
431.39	1.651
431.59	1.651
431.80	1.654
432.00	1.621
432.21	1.622
432.41	1.604
432.61	1.603
432.82	1.597
433.02	1.589
433.23	1.579
433.43	1.574
433.64	1.595
433.84	1.602
434.04	1.603
434.25	1.612
434.45	1.612
434.66	1.623
434.86	1.621
435.06	1.616
435.27	1.614
435.47	1.621
435.68	1.593
435.88	1.582
436.08	1.576
436.29	1.567
436.49	1.582
436.70	1.584
436.90	1.601
437.10	1.621
437.31	1.625
437.51	1.607
437.71	1.607
437.92	1.619
438.12	1.605
438.33	1.611
438.53	1.607
438.73	1.602
438.94	1.595
439.14	1.588
439.35	1.575
439.55	1.588
439.75	1.606
439.96	1.603
440.16	1.612
440.36	1.634
440.57	1.631
440.77	1.638
440.97	1.642
441.18	1.639
441.38	1.653
441.59	1.664
441.79	1.651
441.99	1.650
442.20	1.639
442.40	1.629
442.60	1.621
442.81	1.606
443.01	1.598
443.21	1.583
443.42	1.576
443.62	1.556
443.83	1.562
444.03	1.578
444.23	1.577
444.44	1.587
444.64	1.588
444.84	1.582
445.05	1.594
445.25	1.596
445.45	1.605
445.66	1.618
445.86	1.615
446.06	1.604
446.27	1.601
446.47	1.597
446.67	1.607
446.88	1.610
447.08	1.620
447.28	1.629
447.49	1.632
447.69	1.631
447.89	1.639
448.10	1.643
448.30	1.650
448.50	1.637
448.71	1.644
448.91	1.637
449.11	1.647
449.32	1.657
449.52	1.652
449.72	1.662
449.93	1.651
450.13	1.645
450.33	1.658
450.53	1.641
450.74	1.660
450.94	1.656
451.14	1.662
451.35	1.659
451.55	1.635
451.75	1.644
451.96	1.622
452.16	1.641
452.36	1.632
452.57	1.635
452.77	1.667
452.97	1.648
453.17	1.644
453.38	1.648
453.58	1.642
453.78	1.630
453.99	1.621
454.19	1.646
454.39	1.642
454.59	1.644
454.80	1.639
455.00	1.623
455.20	1.632
455.41	1.620
455.61	1.616
455.81	1.629
456.01	1.647
456.22	1.647
456.42	1.632
456.62	1.640
456.83	1.654
457.03	1.648
457.23	1.641
457.43	1.643
457.64	1.681
457.84	1.670
458.04	1.665
458.25	1.668
458.45	1.677
458.65	1.673
458.85	1.666
459.06	1.648
459.26	1.645
459.46	1.648
459.66	1.657
459.87	1.655
460.07	1.662
460.27	1.665
460.47	1.659
460.68	1.656
460.88	1.661
461.08	1.662
461.28	1.677
461.49	1.676
461.69	1.678
461.89	1.679
462.09	1.673
462.30	1.662
462.50	1.671
462.70	1.695
462.90	1.690
463.11	1.725
463.31	1.719
463.51	1.713
463.71	1.710
463.92	1.723
464.12	1.712
464.32	1.711
464.52	1.722
464.72	1.713
464.93	1.692
465.13	1.677
465.33	1.632
465.53	1.639
465.74	1.649
465.94	1.659
466.14	1.646
466.34	1.649
466.54	1.640
466.75	1.627
466.95	1.617
467.15	1.624
467.35	1.636
467.56	1.648
467.76	1.660
467.96	1.658
468.16	1.656
468.36	1.644
468.57	1.654
468.77	1.669
468.97	1.676
469.17	1.683
469.37	1.678
469.58	1.672
469.78	1.675
469.98	1.668
470.18	1.655
470.38	1.659
470.59	1.675
470.79	1.669
470.99	1.654
471.19	1.658
471.39	1.652
471.60	1.644
471.80	1.661
472.00	1.655
472.20	1.659
472.40	1.678
472.61	1.674
472.81	1.677
473.01	1.677
473.21	1.683
473.41	1.670
473.61	1.682
473.82	1.719
474.02	1.696
474.22	1.703
474.42	1.698
474.62	1.689
474.82	1.687
475.03	1.699
475.23	1.699
475.43	1.705
475.63	1.720
475.83	1.713
476.03	1.694
476.24	1.690
476.44	1.697
476.64	1.692
476.84	1.694
477.04	1.694
477.24	1.684
477.45	1.681
477.65	1.691
477.85	1.685
478.05	1.684
478.25	1.674
478.45	1.686
478.65	1.674
478.86	1.674
479.06	1.666
479.26	1.683
479.46	1.683
479.66	1.680
479.86	1.674
480.06	1.688
480.27	1.682
480.47	1.684
480.67	1.685
480.87	1.687
481.07	1.695
481.27	1.710
481.47	1.711
481.68	1.713
481.88	1.729
482.08	1.726
482.28	1.727
482.48	1.747
482.68	1.750
482.88	1.744
483.08	1.758
483.29	1.762
483.49	1.753
483.69	1.736
483.89	1.737
484.09	1.732
484.29	1.733
484.49	1.732
484.69	1.730
484.89	1.732
485.10	1.742
485.30	1.734
485.50	1.732
485.70	1.735
485.90	1.753
486.10	1.758
486.30	1.764
486.50	1.763
486.70	1.758
486.90	1.748
487.11	1.743
487.31	1.738
487.51	1.730
487.71	1.724
487.91	1.730
488.11	1.732
488.31	1.732
488.51	1.732
488.71	1.735
488.91	1.741
