OOIBase32 Version 2.0.6.5 Data File
++++++++++++++++++++++++++++++++++++
Date: 11-17-2016, 11:09:30
User: Valued Ocean Optics Customer
Spectrometer Serial Number: USB4C01507
Spectrometer Channel: Master
Integration Time (msec): 49
Spectra Averaged: 25
Boxcar Smoothing: 5
Correct for Electrical Dark: Enabled
Time Normalized: Disabled
Dual-beam Reference: Disabled
Reference Channel: Master
Temperature: Not acquired
Spectrometer Type: S4000
ADC Type: USB4000
Number of Pixels in File: 3648
Graph Title: 
>>>>>Begin Spectral Data<<<<<
178.53	1610.590
178.74	2264.575
178.96	46.703
179.18	62.117
179.39	882.998
179.61	-40.477
179.82	24.864
180.04	-47.754
180.25	136.346
180.47	25.047
180.69	80.291
180.90	819.799
181.12	-259.506
181.33	199.730
181.55	-29.199
181.76	-5850.509
181.98	71.388
182.20	-79.489
182.41	10.428
182.63	70.325
182.84	26.728
183.06	22.099
183.27	18.297
183.49	23.723
183.71	22.452
183.92	17.177
184.14	20.627
184.35	31.246
184.57	17.996
184.78	11.713
185.00	16.126
185.21	16.190
185.43	27.403
185.65	29.637
185.86	25.553
186.08	31.526
186.29	31.234
186.51	28.376
186.72	18.976
186.94	25.081
187.15	27.252
187.37	22.957
187.58	14.835
187.80	13.105
188.02	14.252
188.23	16.264
188.45	5.918
188.66	5.313
188.88	10.185
189.09	22.982
189.31	28.555
189.52	30.482
189.74	27.074
189.95	40.417
190.17	38.647
190.38	42.154
190.60	43.133
190.82	53.149
191.03	46.808
191.25	40.946
191.46	37.377
191.68	31.388
191.89	27.007
192.11	32.639
192.32	22.799
192.54	18.956
192.75	24.696
192.97	25.821
193.18	25.155
193.40	36.859
193.61	40.564
193.83	41.388
194.04	35.705
194.26	38.819
194.48	37.793
194.69	44.848
194.91	40.064
195.12	41.936
195.34	41.797
195.55	40.027
195.77	30.375
195.98	30.384
196.20	24.896
196.41	25.414
196.63	22.358
196.84	22.460
197.06	20.474
197.27	31.357
197.49	26.769
197.70	22.186
197.92	23.116
198.13	31.133
198.35	26.920
198.56	26.357
198.78	24.980
198.99	32.435
199.21	28.393
199.42	21.034
199.64	16.415
199.85	12.478
200.07	14.992
200.28	21.845
200.50	18.475
200.71	20.926
200.93	23.953
201.14	30.664
201.36	25.188
201.57	26.796
201.79	31.273
202.00	31.391
202.22	33.162
202.43	34.366
202.65	30.918
202.86	30.907
203.08	30.998
203.29	29.892
203.51	26.706
203.72	29.262
203.94	30.456
204.15	26.991
204.37	28.045
204.58	28.311
204.80	27.938
205.01	29.111
205.22	26.854
205.44	25.851
205.65	25.134
205.87	24.342
206.08	23.648
206.30	25.036
206.51	25.909
206.73	24.017
206.94	20.516
207.16	19.682
207.37	17.122
207.59	16.448
207.80	18.248
208.02	18.665
208.23	21.610
208.45	20.143
208.66	14.124
208.88	11.205
209.09	10.959
209.30	16.018
209.52	12.862
209.73	16.254
209.95	20.604
210.16	17.078
210.38	18.442
210.59	14.665
210.81	10.782
211.02	10.545
211.24	11.603
211.45	9.765
211.66	10.364
211.88	12.966
212.09	11.239
212.31	9.453
212.52	12.183
212.74	8.535
212.95	8.778
213.17	11.368
213.38	14.029
213.60	17.251
213.81	19.510
214.02	18.162
214.24	16.152
214.45	14.199
214.67	13.089
214.88	11.051
215.10	13.249
215.31	13.229
215.53	14.413
215.74	14.837
215.95	14.534
216.17	11.725
216.38	10.663
216.60	10.774
216.81	12.164
217.03	11.861
217.24	12.090
217.45	14.146
217.67	13.991
217.88	13.828
218.10	13.143
218.31	12.159
218.53	12.721
218.74	11.429
218.95	8.135
219.17	5.965
219.38	6.737
219.60	9.875
219.81	7.551
220.03	7.727
220.24	6.636
220.45	6.423
220.67	6.044
220.88	6.093
221.10	6.734
221.31	8.345
221.53	8.197
221.74	7.221
221.95	6.227
222.17	4.932
222.38	4.345
222.60	4.597
222.81	3.701
223.02	3.148
223.24	3.370
223.45	3.435
223.67	2.555
223.88	3.179
224.09	3.992
224.31	4.134
224.52	5.759
224.74	4.742
224.95	5.045
225.16	5.451
225.38	5.321
225.59	5.230
225.81	4.723
226.02	4.969
226.23	4.324
226.45	3.796
226.66	2.973
226.88	2.647
227.09	3.407
227.30	2.939
227.52	2.998
227.73	2.943
227.95	2.881
228.16	2.928
228.37	2.844
228.59	2.944
228.80	2.956
229.02	3.056
229.23	3.107
229.44	2.964
229.66	3.012
229.87	3.038
230.08	3.023
230.30	3.040
230.51	3.085
230.73	3.242
230.94	3.159
231.15	3.170
231.37	3.166
231.58	2.944
231.80	2.933
232.01	3.054
232.22	3.004
232.44	3.307
232.65	3.315
232.86	3.064
233.08	2.995
233.29	3.146
233.51	3.217
233.72	3.196
233.93	3.189
234.15	3.259
234.36	3.126
234.57	3.064
234.79	3.063
235.00	3.069
235.21	3.452
235.43	3.710
235.64	3.577
235.86	3.587
236.07	3.374
236.28	3.249
236.50	3.271
236.71	3.498
236.92	3.610
237.14	3.718
237.35	3.603
237.56	3.449
237.78	3.185
237.99	3.195
238.20	3.324
238.42	3.817
238.63	3.761
238.84	4.153
239.06	3.929
239.27	3.601
239.48	3.237
239.70	3.503
239.91	3.274
240.13	3.349
240.34	3.275
240.55	3.022
240.77	2.855
240.98	2.875
241.19	2.780
241.41	2.746
241.62	2.770
241.83	2.782
242.05	2.711
242.26	2.715
242.47	2.573
242.69	2.617
242.90	2.685
243.11	2.684
243.33	2.665
243.54	2.605
243.75	2.631
243.97	2.628
244.18	2.767
244.39	2.734
244.61	2.589
244.82	2.749
245.03	2.542
245.24	2.457
245.46	2.519
245.67	2.645
245.88	2.654
246.10	2.579
246.31	2.563
246.52	2.487
246.74	2.467
246.95	2.505
247.16	2.467
247.38	2.511
247.59	2.512
247.80	2.518
248.02	2.508
248.23	2.497
248.44	2.512
248.66	2.506
248.87	2.504
249.08	2.525
249.29	2.597
249.51	2.718
249.72	2.820
249.93	2.869
250.15	2.793
250.36	2.793
250.57	2.693
250.79	2.834
251.00	2.866
251.21	2.887
251.42	2.933
251.64	2.798
251.85	2.805
252.06	2.809
252.28	2.717
252.49	2.761
252.70	2.741
252.91	2.835
253.13	2.815
253.34	2.912
253.55	3.051
253.77	3.109
253.98	3.378
254.19	3.185
254.40	3.143
254.62	3.368
254.83	3.212
255.04	3.186
255.26	3.116
255.47	3.026
255.68	2.882
255.89	2.753
256.11	2.643
256.32	2.382
256.53	2.508
256.75	2.548
256.96	2.498
257.17	2.662
257.38	2.807
257.60	2.806
257.81	2.765
258.02	2.688
258.23	2.596
258.45	2.510
258.66	2.538
258.87	2.475
259.09	2.316
259.30	2.327
259.51	2.262
259.72	2.257
259.94	2.183
260.15	2.167
260.36	2.220
260.57	2.212
260.79	2.234
261.00	2.201
261.21	2.217
261.42	2.342
261.64	2.314
261.85	2.374
262.06	2.328
262.27	2.503
262.49	2.583
262.70	2.649
262.91	2.742
263.12	2.724
263.34	2.850
263.55	2.782
263.76	2.726
263.97	2.878
264.19	2.925
264.40	2.893
264.61	2.856
264.82	2.799
265.04	2.667
265.25	2.590
265.46	2.605
265.67	2.631
265.88	2.659
266.10	2.606
266.31	2.510
266.52	2.492
266.73	2.595
266.95	2.571
267.16	2.541
267.37	2.491
267.58	2.463
267.80	2.535
268.01	2.430
268.22	2.454
268.43	2.569
268.64	2.654
268.86	2.611
269.07	2.459
269.28	2.355
269.49	2.417
269.71	2.472
269.92	2.390
270.13	2.389
270.34	2.377
270.55	2.344
270.77	2.366
270.98	2.318
271.19	2.410
271.40	2.415
271.61	2.476
271.83	2.402
272.04	2.328
272.25	2.487
272.46	2.413
272.68	2.431
272.89	2.459
273.10	2.370
273.31	2.318
273.52	2.250
273.74	2.262
273.95	2.200
274.16	2.332
274.37	2.361
274.58	2.304
274.80	2.337
275.01	2.395
275.22	2.470
275.43	2.556
275.64	2.548
275.86	2.609
276.07	2.608
276.28	2.785
276.49	2.715
276.70	2.757
276.91	2.799
277.13	2.794
277.34	2.801
277.55	2.839
277.76	2.656
277.97	2.742
278.19	2.708
278.40	2.752
278.61	2.606
278.82	2.635
279.03	2.610
279.24	2.431
279.46	2.412
279.67	2.345
279.88	2.173
280.09	2.312
280.30	2.236
280.52	2.347
280.73	2.362
280.94	2.424
281.15	2.322
281.36	2.331
281.57	2.486
281.79	2.464
282.00	2.462
282.21	2.441
282.42	2.400
282.63	2.484
282.84	2.303
283.06	2.298
283.27	2.225
283.48	2.256
283.69	2.144
283.90	2.072
284.11	2.029
284.32	2.045
284.54	2.058
284.75	2.036
284.96	1.896
285.17	2.016
285.38	1.954
285.59	2.041
285.81	2.039
286.02	2.133
286.23	2.145
286.44	2.241
286.65	2.305
286.86	2.329
287.07	2.301
287.29	2.413
287.50	2.369
287.71	2.464
287.92	2.404
288.13	2.422
288.34	2.389
288.55	2.422
288.77	2.388
288.98	2.266
289.19	2.277
289.40	2.347
289.61	2.327
289.82	2.339
290.03	2.217
290.24	2.256
290.46	2.231
290.67	2.308
290.88	2.324
291.09	2.306
291.30	2.331
291.51	2.360
291.72	2.397
291.93	2.494
292.15	2.462
292.36	2.657
292.57	2.613
292.78	2.588
292.99	2.429
293.20	2.465
293.41	2.379
293.62	2.423
293.84	2.479
294.05	2.371
294.26	2.290
294.47	2.309
294.68	2.175
294.89	2.284
295.10	2.312
295.31	2.389
295.52	2.326
295.73	2.407
295.95	2.439
296.16	2.487
296.37	2.567
296.58	2.639
296.79	2.602
297.00	2.698
297.21	2.613
297.42	2.585
297.63	2.584
297.84	2.606
298.06	2.559
298.27	2.560
298.48	2.555
298.69	2.487
298.90	2.393
299.11	2.463
299.32	2.398
299.53	2.449
299.74	2.526
299.95	2.535
300.16	2.438
300.38	2.517
300.59	2.446
300.80	2.352
301.01	2.327
301.22	2.368
301.43	2.297
301.64	2.271
301.85	2.178
302.06	2.204
302.27	2.204
302.48	2.296
302.69	2.269
302.91	2.292
303.12	2.335
303.33	2.425
303.54	2.447
303.75	2.463
303.96	2.491
304.17	2.550
304.38	2.528
304.59	2.600
304.80	2.662
305.01	2.652
305.22	2.663
305.43	2.648
305.64	2.655
305.85	2.629
306.06	2.667
306.28	2.724
306.49	2.781
306.70	2.759
306.91	2.615
307.12	2.560
307.33	2.462
307.54	2.521
307.75	2.489
307.96	2.498
308.17	2.500
308.38	2.463
308.59	2.377
308.80	2.364
309.01	2.419
309.22	2.435
309.43	2.387
309.64	2.419
309.85	2.366
310.06	2.359
310.27	2.405
310.48	2.406
310.70	2.454
310.91	2.469
311.12	2.414
311.33	2.400
311.54	2.373
311.75	2.400
311.96	2.498
312.17	2.538
312.38	2.555
312.59	2.533
312.80	2.516
313.01	2.479
313.22	2.612
313.43	2.685
313.64	2.642
313.85	2.711
314.06	2.684
314.27	2.613
314.48	2.649
314.69	2.706
314.90	2.757
315.11	2.804
315.32	2.804
315.53	2.732
315.74	2.725
315.95	2.774
316.16	2.750
316.37	2.715
316.58	2.714
316.79	2.632
317.00	2.629
317.21	2.478
317.42	2.433
317.63	2.481
317.84	2.411
318.05	2.433
318.26	2.426
318.47	2.469
318.68	2.541
318.89	2.601
319.10	2.664
319.31	2.649
319.52	2.700
319.73	2.791
319.94	2.805
320.15	2.838
320.36	2.894
320.57	2.881
320.78	2.877
320.99	2.822
321.20	2.830
321.41	2.780
321.62	2.785
321.83	2.768
322.04	2.684
322.25	2.656
322.46	2.648
322.67	2.615
322.88	2.604
323.09	2.633
323.30	2.683
323.51	2.618
323.72	2.607
323.93	2.579
324.14	2.714
324.35	2.786
324.56	2.779
324.77	2.751
324.98	2.723
325.19	2.765
325.40	2.764
325.61	2.782
325.82	2.862
326.03	2.949
326.24	2.951
326.45	2.903
326.65	2.880
326.86	2.905
327.07	2.945
327.28	2.946
327.49	2.956
327.70	2.980
327.91	2.954
328.12	2.947
328.33	2.908
328.54	2.953
328.75	2.967
328.96	3.011
329.17	3.016
329.38	3.036
329.59	3.059
329.80	3.018
330.01	3.074
330.22	3.109
330.43	3.097
330.64	3.095
330.85	3.118
331.05	3.091
331.26	3.085
331.47	3.084
331.68	3.079
331.89	3.134
332.10	3.102
332.31	3.077
332.52	3.059
332.73	3.015
332.94	2.990
333.15	2.982
333.36	3.002
333.57	2.971
333.78	2.996
333.99	2.997
334.19	2.961
334.40	3.018
334.61	3.028
334.82	3.094
335.03	3.077
335.24	3.114
335.45	3.154
335.66	3.187
335.87	3.217
336.08	3.195
336.29	3.202
336.50	3.206
336.71	3.322
336.91	3.369
337.12	3.276
337.33	3.329
337.54	3.364
337.75	3.316
337.96	3.259
338.17	3.307
338.38	3.315
338.59	3.362
338.80	3.367
339.01	3.315
339.21	3.178
339.42	3.271
339.63	3.266
339.84	3.313
340.05	3.363
340.26	3.374
340.47	3.308
340.68	3.313
340.89	3.298
341.10	3.312
341.30	3.308
341.51	3.355
341.72	3.337
341.93	3.403
342.14	3.290
342.35	3.289
342.56	3.291
342.77	3.328
342.98	3.316
343.18	3.302
343.39	3.313
343.60	3.279
343.81	3.316
344.02	3.358
344.23	3.363
344.44	3.448
344.65	3.415
344.85	3.432
345.06	3.447
345.27	3.482
345.48	3.461
345.69	3.499
345.90	3.557
346.11	3.544
346.32	3.503
346.52	3.514
346.73	3.454
346.94	3.477
347.15	3.530
347.36	3.510
347.57	3.557
347.78	3.562
347.98	3.551
348.19	3.562
348.40	3.596
348.61	3.654
348.82	3.603
349.03	3.664
349.24	3.683
349.44	3.639
349.65	3.657
349.86	3.655
350.07	3.730
350.28	3.742
350.49	3.679
350.70	3.665
350.90	3.675
351.11	3.704
351.32	3.693
351.53	3.732
351.74	3.799
351.95	3.795
352.15	3.756
352.36	3.757
352.57	3.712
352.78	3.790
352.99	3.826
353.20	3.846
353.40	3.833
353.61	3.867
353.82	3.825
354.03	3.848
354.24	3.865
354.45	3.910
354.65	3.908
354.86	3.947
355.07	3.939
355.28	3.969
355.49	3.955
355.70	3.968
355.90	3.941
356.11	3.981
356.32	3.932
356.53	3.938
356.74	3.930
356.94	3.932
357.15	3.942
357.36	3.977
357.57	3.952
357.78	3.922
357.99	3.954
358.19	3.993
358.40	3.998
358.61	4.039
358.82	4.131
359.03	4.144
359.23	4.143
359.44	4.171
359.65	4.125
359.86	4.154
360.07	4.202
360.27	4.252
360.48	4.275
360.69	4.261
360.90	4.237
361.11	4.263
361.31	4.262
361.52	4.281
361.73	4.263
361.94	4.287
362.15	4.286
362.35	4.277
362.56	4.270
362.77	4.261
362.98	4.320
363.18	4.321
363.39	4.242
363.60	4.288
363.81	4.287
364.02	4.319
364.22	4.347
364.43	4.325
364.64	4.315
364.85	4.263
365.05	4.294
365.26	4.287
365.47	4.342
365.68	4.345
365.89	4.302
366.09	4.324
366.30	4.327
366.51	4.319
366.72	4.313
366.92	4.362
367.13	4.433
367.34	4.438
367.55	4.433
367.75	4.448
367.96	4.514
368.17	4.553
368.38	4.584
368.58	4.562
368.79	4.528
369.00	4.585
369.21	4.570
369.41	4.588
369.62	4.549
369.83	4.572
370.04	4.540
370.24	4.518
370.45	4.541
370.66	4.540
370.87	4.562
371.07	4.598
371.28	4.577
371.49	4.615
371.70	4.583
371.90	4.601
372.11	4.597
372.32	4.596
372.53	4.620
372.73	4.627
372.94	4.599
373.15	4.624
373.36	4.639
373.56	4.709
373.77	4.704
373.98	4.745
374.19	4.801
374.39	4.816
374.60	4.844
374.81	4.844
375.01	4.845
375.22	4.855
375.43	4.860
375.64	4.884
375.84	4.846
376.05	4.867
376.26	4.853
376.46	4.812
376.67	4.793
376.88	4.826
377.09	4.816
377.29	4.815
377.50	4.824
377.71	4.848
377.91	4.856
378.12	4.880
378.33	4.894
378.54	4.911
378.74	4.946
378.95	4.960
379.16	4.960
379.36	4.944
379.57	4.941
379.78	4.962
379.99	4.980
380.19	4.969
380.40	4.939
380.61	4.913
380.81	4.918
381.02	4.940
381.23	4.933
381.43	4.930
381.64	4.992
381.85	5.030
382.05	5.035
382.26	5.000
382.47	5.033
382.67	5.051
382.88	5.055
383.09	5.073
383.30	5.054
383.50	5.116
383.71	5.111
383.92	5.091
384.12	5.103
384.33	5.104
384.54	5.133
384.74	5.112
384.95	5.111
385.16	5.148
385.36	5.160
385.57	5.172
385.78	5.165
385.98	5.209
386.19	5.204
386.40	5.200
386.60	5.199
386.81	5.192
387.02	5.214
387.22	5.237
387.43	5.225
387.64	5.219
387.84	5.223
388.05	5.225
388.26	5.223
388.46	5.254
388.67	5.283
388.88	5.332
389.08	5.357
389.29	5.388
389.49	5.411
389.70	5.440
389.91	5.433
390.11	5.422
390.32	5.419
390.53	5.430
390.73	5.450
390.94	5.442
391.15	5.431
391.35	5.441
391.56	5.441
391.77	5.448
391.97	5.432
392.18	5.457
392.38	5.510
392.59	5.531
392.80	5.519
393.00	5.496
393.21	5.490
393.42	5.527
393.62	5.535
393.83	5.548
394.04	5.532
394.24	5.534
394.45	5.524
394.65	5.534
394.86	5.528
395.07	5.525
395.27	5.536
395.48	5.563
395.68	5.540
395.89	5.572
396.10	5.593
396.30	5.616
396.51	5.650
396.72	5.700
396.92	5.681
397.13	5.691
397.33	5.715
397.54	5.724
397.75	5.759
397.95	5.769
398.16	5.749
398.36	5.746
398.57	5.775
398.78	5.770
398.98	5.739
399.19	5.742
399.39	5.742
399.60	5.747
399.81	5.763
400.01	5.731
400.22	5.758
400.42	5.796
400.63	5.788
400.84	5.808
401.04	5.836
401.25	5.863
401.45	5.890
401.66	5.921
401.86	5.930
402.07	5.959
402.28	5.975
402.48	5.968
402.69	5.971
402.89	6.003
403.10	5.996
403.31	5.980
403.51	5.993
403.72	6.017
403.92	6.015
404.13	6.023
404.33	6.028
404.54	6.023
404.75	6.031
404.95	6.051
405.16	6.037
405.36	6.046
405.57	6.059
405.77	6.070
405.98	6.057
406.18	6.071
406.39	6.093
406.60	6.082
406.80	6.119
407.01	6.146
407.21	6.145
407.42	6.164
407.62	6.175
407.83	6.183
408.03	6.186
408.24	6.226
408.45	6.243
408.65	6.274
408.86	6.312
409.06	6.317
409.27	6.326
409.47	6.313
409.68	6.327
409.88	6.380
410.09	6.405
410.29	6.419
410.50	6.416
410.71	6.443
410.91	6.452
411.12	6.464
411.32	6.477
411.53	6.491
411.73	6.518
411.94	6.528
412.14	6.510
412.35	6.530
412.55	6.556
412.76	6.572
412.96	6.581
413.17	6.580
413.37	6.567
413.58	6.613
413.78	6.633
413.99	6.664
414.19	6.696
414.40	6.721
414.61	6.718
414.81	6.731
415.02	6.745
415.22	6.735
415.43	6.762
415.63	6.780
415.84	6.775
416.04	6.780
416.25	6.774
416.45	6.761
416.66	6.768
416.86	6.790
417.07	6.776
417.27	6.775
417.48	6.791
417.68	6.799
417.89	6.793
418.09	6.785
418.30	6.767
418.50	6.766
418.71	6.765
418.91	6.763
419.12	6.763
419.32	6.776
419.53	6.789
419.73	6.817
419.94	6.821
420.14	6.834
420.34	6.848
420.55	6.869
420.75	6.882
420.96	6.899
421.16	6.897
421.37	6.898
421.57	6.915
421.78	6.924
421.98	6.924
422.19	6.940
422.39	6.986
422.60	7.002
422.80	7.033
423.01	7.055
423.21	7.077
423.42	7.098
423.62	7.121
423.83	7.123
424.03	7.138
424.23	7.141
424.44	7.138
424.64	7.128
424.85	7.136
425.05	7.138
425.26	7.162
425.46	7.189
425.67	7.206
425.87	7.228
426.08	7.260
426.28	7.266
426.48	7.295
426.69	7.323
426.89	7.359
427.10	7.408
427.30	7.452
427.51	7.470
427.71	7.467
427.92	7.490
428.12	7.517
428.32	7.529
428.53	7.557
428.73	7.580
428.94	7.600
429.14	7.608
429.35	7.593
429.55	7.597
429.76	7.600
429.96	7.623
430.16	7.640
430.37	7.650
430.57	7.670
430.78	7.709
430.98	7.715
431.19	7.729
431.39	7.709
431.59	7.731
431.80	7.745
432.00	7.758
432.21	7.758
432.41	7.752
432.61	7.755
432.82	7.772
433.02	7.774
433.23	7.784
433.43	7.788
433.64	7.822
433.84	7.828
434.04	7.830
434.25	7.844
434.45	7.869
434.66	7.898
434.86	7.916
435.06	7.933
435.27	7.953
435.47	7.979
435.68	7.994
435.88	8.052
436.08	8.067
436.29	8.087
436.49	8.094
436.70	8.100
436.90	8.123
437.10	8.134
437.31	8.133
437.51	8.140
437.71	8.153
437.92	8.161
438.12	8.140
438.33	8.148
438.53	8.161
438.73	8.192
438.94	8.215
439.14	8.209
439.35	8.213
439.55	8.247
439.75	8.241
439.96	8.251
440.16	8.287
440.36	8.285
440.57	8.304
440.77	8.304
440.97	8.304
441.18	8.309
441.38	8.341
441.59	8.373
441.79	8.368
441.99	8.410
442.20	8.423
442.40	8.427
442.60	8.470
442.81	8.486
443.01	8.523
443.21	8.536
443.42	8.566
443.62	8.586
443.83	8.612
444.03	8.637
444.23	8.637
444.44	8.651
444.64	8.663
444.84	8.671
445.05	8.691
445.25	8.700
445.45	8.720
445.66	8.709
445.86	8.707
446.06	8.708
446.27	8.712
446.47	8.710
446.67	8.725
446.88	8.727
447.08	8.740
447.28	8.748
447.49	8.764
447.69	8.772
447.89	8.803
448.10	8.831
448.30	8.867
448.50	8.885
448.71	8.936
448.91	8.956
449.11	8.995
449.32	9.037
449.52	9.074
449.72	9.110
449.93	9.129
450.13	9.160
450.33	9.198
450.53	9.194
450.74	9.237
450.94	9.258
451.14	9.281
451.35	9.299
451.55	9.293
451.75	9.299
451.96	9.296
452.16	9.303
452.36	9.310
452.57	9.325
452.77	9.343
452.97	9.345
453.17	9.354
453.38	9.378
453.58	9.396
453.78	9.408
453.99	9.422
454.19	9.457
454.39	9.489
454.59	9.507
454.80	9.510
455.00	9.541
455.20	9.558
455.41	9.566
455.61	9.572
455.81	9.582
456.01	9.601
456.22	9.626
456.42	9.656
456.62	9.669
456.83	9.710
457.03	9.722
457.23	9.713
457.43	9.741
457.64	9.790
457.84	9.796
458.04	9.844
458.25	9.856
458.45	9.869
458.65	9.866
458.85	9.881
459.06	9.853
459.26	9.854
459.46	9.858
459.66	9.855
459.87	9.834
460.07	9.856
460.27	9.843
460.47	9.861
460.68	9.883
460.88	9.884
461.08	9.908
461.28	9.958
461.49	9.991
461.69	10.054
461.89	10.088
462.09	10.134
462.30	10.152
462.50	10.202
462.70	10.221
462.90	10.213
463.11	10.266
463.31	10.272
463.51	10.292
463.71	10.323
463.92	10.317
464.12	10.336
464.32	10.366
464.52	10.388
464.72	10.416
464.93	10.443
465.13	10.487
465.33	10.486
465.53	10.513
465.74	10.534
465.94	10.547
466.14	10.562
466.34	10.578
466.54	10.577
466.75	10.589
466.95	10.576
467.15	10.581
467.35	10.591
467.56	10.605
467.76	10.624
467.96	10.633
468.16	10.645
468.36	10.665
468.57	10.707
468.77	10.734
468.97	10.746
469.17	10.772
469.37	10.793
469.58	10.813
469.78	10.841
469.98	10.853
470.18	10.863
470.38	10.874
470.59	10.901
470.79	10.894
470.99	10.917
471.19	10.944
471.39	10.971
471.60	11.003
471.80	11.025
472.00	11.050
472.20	11.068
472.40	11.096
472.61	11.120
472.81	11.144
473.01	11.163
473.21	11.174
473.41	11.186
473.61	11.196
473.82	11.218
474.02	11.216
474.22	11.229
474.42	11.260
474.62	11.287
474.82	11.321
475.03	11.352
475.23	11.371
475.43	11.414
475.63	11.445
475.83	11.464
476.03	11.459
476.24	11.485
476.44	11.500
476.64	11.501
476.84	11.501
477.04	11.505
477.24	11.498
477.45	11.524
477.65	11.520
477.85	11.530
478.05	11.526
478.25	11.545
478.45	11.566
478.65	11.586
478.86	11.599
479.06	11.620
479.26	11.657
479.46	11.691
479.66	11.715
479.86	11.734
480.06	11.772
480.27	11.798
480.47	11.816
480.67	11.826
480.87	11.829
481.07	11.849
481.27	11.875
481.47	11.881
481.68	11.893
481.88	11.908
482.08	11.953
482.28	11.986
482.48	12.065
482.68	12.126
482.88	12.217
483.08	12.393
483.29	12.478
483.49	12.410
483.69	12.345
483.89	12.308
484.09	12.286
484.29	12.258
484.49	12.251
484.69	12.232
484.89	12.219
485.10	12.168
485.30	12.018
485.50	11.911
485.70	11.959
485.90	12.039
