OOIBase32 Version 2.0.6.5 Data File
++++++++++++++++++++++++++++++++++++
Date: 11-17-2016, 11:07:53
User: Valued Ocean Optics Customer
Spectrometer Serial Number: USB4C01507
Spectrometer Channel: Master
Integration Time (msec): 49
Spectra Averaged: 25
Boxcar Smoothing: 5
Correct for Electrical Dark: Enabled
Time Normalized: Disabled
Dual-beam Reference: Disabled
Reference Channel: Master
Temperature: Not acquired
Spectrometer Type: S4000
ADC Type: USB4000
Number of Pixels in File: 3648
Graph Title: 
>>>>>Begin Spectral Data<<<<<
178.53	1573.617
178.74	2057.658
178.96	3.012
179.18	11.297
179.39	499.552
179.61	-15.083
179.82	-33.798
180.04	118.398
180.25	136.636
180.47	-27.204
180.69	204.366
180.90	253.402
181.12	-209.021
181.33	121.533
181.55	49.868
181.76	-3888.807
181.98	121.302
182.20	74.322
182.41	19.001
182.63	313.637
182.84	18.126
183.06	3.101
183.27	10.401
183.49	7.536
183.71	3.376
183.92	-11.885
184.14	-20.899
184.35	-21.571
184.57	-24.328
184.78	-12.482
185.00	-3.778
185.21	-9.269
185.43	8.410
185.65	11.185
185.86	9.721
186.08	9.973
186.29	22.656
186.51	35.379
186.72	32.476
186.94	26.612
187.15	20.793
187.37	18.163
187.58	17.814
187.80	13.340
188.02	15.545
188.23	13.584
188.45	14.353
188.66	10.976
188.88	5.649
189.09	4.043
189.31	2.660
189.52	5.774
189.74	1.475
189.95	10.095
190.17	12.490
190.38	6.802
190.60	13.102
190.82	16.106
191.03	16.057
191.25	15.413
191.46	18.802
191.68	18.083
191.89	16.998
192.11	20.649
192.32	15.242
192.54	6.700
192.75	12.824
192.97	6.822
193.18	5.763
193.40	3.573
193.61	3.810
193.83	13.315
194.04	10.450
194.26	15.485
194.48	12.277
194.69	12.642
194.91	13.146
195.12	3.939
195.34	11.487
195.55	15.355
195.77	8.027
195.98	3.599
196.20	-2.875
196.41	-3.444
196.63	-6.754
196.84	-7.934
197.06	-6.472
197.27	-1.696
197.49	-0.108
197.70	-7.250
197.92	-18.566
198.13	-4.724
198.35	-5.651
198.56	-12.984
198.78	-10.049
198.99	-9.244
199.21	-6.559
199.42	-9.265
199.64	-10.042
199.85	-9.737
200.07	-5.909
200.28	2.241
200.50	-2.918
200.71	1.546
200.93	10.392
201.14	9.665
201.36	9.308
201.57	11.598
201.79	8.132
202.00	7.144
202.22	9.759
202.43	9.298
202.65	6.885
202.86	6.549
203.08	5.610
203.29	1.847
203.51	0.687
203.72	1.259
203.94	0.861
204.15	4.392
204.37	7.854
204.58	6.463
204.80	5.614
205.01	9.285
205.22	10.534
205.44	11.352
205.65	11.079
205.87	9.751
206.08	10.481
206.30	10.587
206.51	8.718
206.73	4.520
206.94	0.345
207.16	-0.389
207.37	-1.802
207.59	-7.109
207.80	-8.980
208.02	-8.318
208.23	-4.431
208.45	-3.927
208.66	-5.187
208.88	-2.384
209.09	-1.891
209.30	-0.588
209.52	0.543
209.73	2.524
209.95	8.629
210.16	6.619
210.38	8.914
210.59	9.003
210.81	6.498
211.02	7.546
211.24	7.191
211.45	5.848
211.66	10.805
211.88	10.499
212.09	7.403
212.31	5.163
212.52	7.579
212.74	2.726
212.95	3.093
213.17	4.589
213.38	5.883
213.60	5.333
213.81	9.267
214.02	7.634
214.24	7.318
214.45	4.673
214.67	5.052
214.88	3.577
215.10	5.623
215.31	6.052
215.53	5.317
215.74	4.175
215.95	6.656
216.17	2.772
216.38	0.851
216.60	1.037
216.81	4.560
217.03	4.946
217.24	6.372
217.45	6.096
217.67	7.378
217.88	8.085
218.10	7.904
218.31	3.850
218.53	5.471
218.74	5.465
218.95	2.455
219.17	-0.428
219.38	-0.359
219.60	1.976
219.81	2.651
220.03	1.214
220.24	1.700
220.45	0.175
220.67	2.227
220.88	2.885
221.10	3.419
221.31	5.501
221.53	6.798
221.74	6.138
221.95	4.119
222.17	2.877
222.38	2.866
222.60	2.154
222.81	2.631
223.02	2.705
223.24	2.202
223.45	2.669
223.67	2.693
223.88	1.895
224.09	2.525
224.31	3.659
224.52	4.564
224.74	3.551
224.95	3.832
225.16	4.093
225.38	3.584
225.59	3.635
225.81	3.461
226.02	2.968
226.23	2.755
226.45	2.611
226.66	1.977
226.88	2.054
227.09	2.675
227.30	2.589
227.52	2.554
227.73	2.546
227.95	2.619
228.16	2.553
228.37	2.662
228.59	2.740
228.80	2.776
229.02	2.794
229.23	2.818
229.44	2.800
229.66	2.782
229.87	2.914
230.08	2.968
230.30	2.960
230.51	3.091
230.73	3.090
230.94	3.099
231.15	2.916
231.37	3.001
231.58	3.092
231.80	2.954
232.01	3.084
232.22	2.950
232.44	2.827
232.65	2.783
232.86	2.516
233.08	2.651
233.29	2.746
233.51	3.066
233.72	2.914
233.93	2.785
234.15	2.873
234.36	2.956
234.57	2.915
234.79	3.273
235.00	3.405
235.21	3.773
235.43	3.691
235.64	3.400
235.86	3.388
236.07	3.253
236.28	3.067
236.50	2.938
236.71	3.042
236.92	3.109
237.14	2.931
237.35	2.927
237.56	3.011
237.78	2.928
237.99	3.127
238.20	2.975
238.42	3.246
238.63	3.163
238.84	3.530
239.06	3.298
239.27	3.123
239.48	3.029
239.70	2.999
239.91	2.506
240.13	2.530
240.34	2.686
240.55	2.722
240.77	2.799
240.98	2.878
241.19	2.925
241.41	2.835
241.62	2.854
241.83	2.779
242.05	2.784
242.26	2.875
242.47	2.836
242.69	2.794
242.90	2.755
243.11	2.759
243.33	2.750
243.54	2.562
243.75	2.653
243.97	2.558
244.18	2.638
244.39	2.605
244.61	2.384
244.82	2.542
245.03	2.636
245.24	2.673
245.46	2.701
245.67	2.795
245.88	2.819
246.10	2.731
246.31	2.723
246.52	2.636
246.74	2.618
246.95	2.645
247.16	2.641
247.38	2.601
247.59	2.609
247.80	2.596
248.02	2.594
248.23	2.589
248.44	2.624
248.66	2.654
248.87	2.728
249.08	2.737
249.29	2.804
249.51	2.845
249.72	2.965
249.93	3.073
250.15	3.095
250.36	2.863
250.57	2.806
250.79	2.845
251.00	2.801
251.21	2.830
251.42	2.901
251.64	2.852
251.85	2.858
252.06	2.868
252.28	2.696
252.49	2.608
252.70	2.745
252.91	2.827
253.13	2.814
253.34	2.873
253.55	2.861
253.77	2.783
253.98	2.883
254.19	2.593
254.40	2.465
254.62	2.482
254.83	2.640
255.04	2.573
255.26	2.445
255.47	2.197
255.68	2.108
255.89	2.201
256.11	2.294
256.32	2.176
256.53	2.435
256.75	2.518
256.96	2.696
257.17	2.641
257.38	2.797
257.60	2.905
257.81	3.001
258.02	2.858
258.23	2.750
258.45	2.662
258.66	2.779
258.87	2.653
259.09	2.583
259.30	2.596
259.51	2.598
259.72	2.565
259.94	2.505
260.15	2.486
260.36	2.594
260.57	2.595
260.79	2.579
261.00	2.516
261.21	2.528
261.42	2.574
261.64	2.499
261.85	2.420
262.06	2.318
262.27	2.461
262.49	2.464
262.70	2.342
262.91	2.415
263.12	2.559
263.34	2.549
263.55	2.614
263.76	2.536
263.97	2.667
264.19	2.855
264.40	2.868
264.61	2.742
264.82	2.732
265.04	2.700
265.25	2.540
265.46	2.502
265.67	2.476
265.88	2.444
266.10	2.477
266.31	2.404
266.52	2.344
266.73	2.526
266.95	2.549
267.16	2.619
267.37	2.558
267.58	2.554
267.80	2.578
268.01	2.606
268.22	2.612
268.43	2.679
268.64	2.711
268.86	2.691
269.07	2.523
269.28	2.395
269.49	2.404
269.71	2.466
269.92	2.408
270.13	2.440
270.34	2.416
270.55	2.445
270.77	2.485
270.98	2.447
271.19	2.500
271.40	2.537
271.61	2.510
271.83	2.462
272.04	2.423
272.25	2.548
272.46	2.478
272.68	2.540
272.89	2.534
273.10	2.424
273.31	2.403
273.52	2.414
273.74	2.314
273.95	2.353
274.16	2.348
274.37	2.406
274.58	2.436
274.80	2.451
275.01	2.454
275.22	2.448
275.43	2.501
275.64	2.616
275.86	2.590
276.07	2.681
276.28	2.777
276.49	2.767
276.70	2.776
276.91	2.654
277.13	2.603
277.34	2.542
277.55	2.587
277.76	2.584
277.97	2.417
278.19	2.380
278.40	2.363
278.61	2.279
278.82	2.292
279.03	2.250
279.24	2.290
279.46	2.300
279.67	2.301
279.88	2.120
280.09	2.119
280.30	2.250
280.52	2.269
280.73	2.366
280.94	2.386
281.15	2.405
281.36	2.401
281.57	2.441
281.79	2.515
282.00	2.585
282.21	2.675
282.42	2.668
282.63	2.693
282.84	2.659
283.06	2.590
283.27	2.648
283.48	2.628
283.69	2.519
283.90	2.444
284.11	2.373
284.32	2.266
284.54	2.289
284.75	2.169
284.96	2.082
285.17	2.175
285.38	2.177
285.59	2.113
285.81	2.152
286.02	2.282
286.23	2.279
286.44	2.327
286.65	2.398
286.86	2.360
287.07	2.450
287.29	2.518
287.50	2.488
287.71	2.466
287.92	2.601
288.13	2.558
288.34	2.514
288.55	2.472
288.77	2.468
288.98	2.393
289.19	2.375
289.40	2.446
289.61	2.442
289.82	2.408
290.03	2.386
290.24	2.357
290.46	2.318
290.67	2.274
290.88	2.396
291.09	2.395
291.30	2.443
291.51	2.504
291.72	2.449
291.93	2.505
292.15	2.465
292.36	2.593
292.57	2.559
292.78	2.522
292.99	2.467
293.20	2.423
293.41	2.368
293.62	2.327
293.84	2.424
294.05	2.457
294.26	2.361
294.47	2.426
294.68	2.307
294.89	2.365
295.10	2.407
295.31	2.497
295.52	2.550
295.73	2.480
295.95	2.490
296.16	2.462
296.37	2.513
296.58	2.546
296.79	2.569
297.00	2.572
297.21	2.456
297.42	2.379
297.63	2.363
297.84	2.321
298.06	2.332
298.27	2.297
298.48	2.253
298.69	2.081
298.90	2.015
299.11	1.922
299.32	1.920
299.53	1.973
299.74	2.104
299.95	2.110
300.16	2.095
300.38	2.127
300.59	2.119
300.80	2.159
301.01	2.290
301.22	2.284
301.43	2.226
301.64	2.199
301.85	2.238
302.06	2.210
302.27	2.113
302.48	2.090
302.69	2.098
302.91	2.054
303.12	2.012
303.33	1.981
303.54	2.007
303.75	2.046
303.96	2.050
304.17	1.992
304.38	2.047
304.59	2.129
304.80	2.153
305.01	2.186
305.22	2.244
305.43	2.180
305.64	2.196
305.85	2.145
306.06	2.153
306.28	2.142
306.49	2.137
306.70	2.061
306.91	1.977
307.12	1.975
307.33	1.858
307.54	1.914
307.75	1.971
307.96	1.943
308.17	1.980
308.38	1.910
308.59	1.979
308.80	1.982
309.01	1.982
309.22	2.040
309.43	2.054
309.64	2.116
309.85	2.088
310.06	2.073
310.27	2.096
310.48	2.069
310.70	2.188
310.91	2.187
311.12	2.171
311.33	2.170
311.54	2.104
311.75	2.089
311.96	2.113
312.17	2.116
312.38	2.129
312.59	2.105
312.80	2.123
313.01	2.065
313.22	2.052
313.43	2.074
313.64	1.995
313.85	2.004
314.06	1.985
314.27	1.914
314.48	1.979
314.69	2.020
314.90	2.069
315.11	2.180
315.32	2.192
315.53	2.144
315.74	2.167
315.95	2.191
316.16	2.209
316.37	2.145
316.58	2.128
316.79	2.047
317.00	2.023
317.21	1.983
317.42	1.835
317.63	1.773
317.84	1.709
318.05	1.630
318.26	1.657
318.47	1.660
318.68	1.730
318.89	1.768
319.10	1.786
319.31	1.705
319.52	1.731
319.73	1.759
319.94	1.830
320.15	1.827
320.36	1.932
320.57	1.923
320.78	1.970
320.99	1.897
321.20	1.920
321.41	1.940
321.62	1.974
321.83	1.945
322.04	1.906
322.25	1.942
322.46	1.947
322.67	1.894
322.88	1.921
323.09	1.887
323.30	1.884
323.51	1.829
323.72	1.818
323.93	1.803
324.14	1.863
324.35	1.917
324.56	1.861
324.77	1.876
324.98	1.838
325.19	1.785
325.40	1.802
325.61	1.860
325.82	1.844
326.03	1.871
326.24	1.869
326.45	1.843
326.65	1.799
326.86	1.770
327.07	1.827
327.28	1.867
327.49	1.883
327.70	1.863
327.91	1.822
328.12	1.804
328.33	1.721
328.54	1.708
328.75	1.751
328.96	1.813
329.17	1.813
329.38	1.766
329.59	1.670
329.80	1.671
330.01	1.758
330.22	1.777
330.43	1.819
330.64	1.884
330.85	1.964
331.05	1.837
331.26	1.829
331.47	1.828
331.68	1.804
331.89	1.880
332.10	1.839
332.31	1.789
332.52	1.779
332.73	1.770
332.94	1.743
333.15	1.693
333.36	1.791
333.57	1.761
333.78	1.753
333.99	1.813
334.19	1.834
334.40	1.856
334.61	1.906
334.82	1.937
335.03	1.921
335.24	1.923
335.45	1.892
335.66	1.816
335.87	1.839
336.08	1.864
336.29	1.889
336.50	1.853
336.71	1.923
336.91	1.897
337.12	1.823
337.33	1.825
337.54	1.815
337.75	1.838
337.96	1.870
338.17	1.897
338.38	1.876
338.59	1.883
338.80	1.846
339.01	1.786
339.21	1.752
339.42	1.785
339.63	1.793
339.84	1.802
340.05	1.781
340.26	1.727
340.47	1.671
340.68	1.708
340.89	1.634
341.10	1.654
341.30	1.646
341.51	1.626
341.72	1.678
341.93	1.704
342.14	1.661
342.35	1.730
342.56	1.761
342.77	1.783
342.98	1.742
343.18	1.756
343.39	1.785
343.60	1.813
343.81	1.806
344.02	1.743
344.23	1.726
344.44	1.709
344.65	1.646
344.85	1.609
345.06	1.617
345.27	1.630
345.48	1.640
345.69	1.693
345.90	1.751
346.11	1.753
346.32	1.772
346.52	1.791
346.73	1.804
346.94	1.809
347.15	1.847
347.36	1.804
347.57	1.854
347.78	1.835
347.98	1.809
348.19	1.743
348.40	1.782
348.61	1.799
348.82	1.797
349.03	1.850
349.24	1.855
349.44	1.868
349.65	1.913
349.86	1.861
350.07	1.948
350.28	1.930
350.49	1.974
350.70	1.940
350.90	1.916
351.11	1.893
351.32	1.840
351.53	1.856
351.74	1.849
351.95	1.799
352.15	1.831
352.36	1.764
352.57	1.726
352.78	1.730
352.99	1.742
353.20	1.822
353.40	1.825
353.61	1.813
353.82	1.805
354.03	1.824
354.24	1.828
354.45	1.833
354.65	1.888
354.86	1.927
355.07	1.913
355.28	1.956
355.49	1.921
355.70	1.928
355.90	1.953
356.11	1.939
356.32	1.937
356.53	1.976
356.74	1.940
356.94	1.864
357.15	1.843
357.36	1.820
357.57	1.772
357.78	1.747
357.99	1.776
358.19	1.775
358.40	1.810
358.61	1.815
358.82	1.821
359.03	1.863
359.23	1.895
359.44	1.909
359.65	1.877
359.86	1.915
360.07	1.965
360.27	1.991
360.48	2.010
360.69	1.994
360.90	1.997
361.11	2.046
361.31	2.044
361.52	2.060
361.73	2.072
361.94	2.107
362.15	2.090
362.35	2.037
362.56	2.020
362.77	2.008
362.98	2.016
363.18	1.989
363.39	1.936
363.60	1.930
363.81	1.920
364.02	1.919
364.22	1.927
364.43	1.923
364.64	1.945
364.85	1.904
365.05	1.904
365.26	1.911
365.47	1.953
365.68	1.925
365.89	1.928
366.09	1.957
366.30	1.958
366.51	1.962
366.72	1.959
366.92	2.001
367.13	2.002
367.34	2.031
367.55	2.031
367.75	2.010
367.96	2.038
368.17	2.009
368.38	2.010
368.58	1.980
368.79	1.952
369.00	1.953
369.21	1.927
369.41	1.933
369.62	1.888
369.83	1.877
370.04	1.857
370.24	1.860
370.45	1.888
370.66	1.869
370.87	1.873
371.07	1.877
371.28	1.885
371.49	1.870
371.70	1.887
371.90	1.909
372.11	1.928
372.32	1.970
372.53	1.977
372.73	1.968
372.94	1.961
373.15	2.018
373.36	2.022
373.56	2.037
373.77	2.027
373.98	2.032
374.19	2.052
374.39	2.042
374.60	2.040
374.81	2.046
375.01	2.065
375.22	2.041
375.43	2.033
375.64	2.035
375.84	2.034
376.05	2.049
376.26	2.016
376.46	1.988
376.67	1.963
376.88	1.938
377.09	1.931
377.29	1.904
377.50	1.915
377.71	1.889
377.91	1.924
378.12	1.929
378.33	1.937
378.54	1.976
378.74	1.991
378.95	2.021
379.16	2.044
379.36	2.021
379.57	2.048
379.78	2.060
379.99	2.092
380.19	2.056
380.40	2.031
380.61	2.008
380.81	1.983
381.02	2.008
381.23	2.003
381.43	1.989
381.64	2.052
381.85	2.044
382.05	2.045
382.26	2.008
382.47	2.009
382.67	2.007
382.88	2.003
383.09	2.021
383.30	2.016
383.50	2.036
383.71	2.039
383.92	2.006
384.12	2.006
384.33	1.948
384.54	1.982
384.74	1.994
384.95	2.002
385.16	2.013
385.36	2.008
385.57	1.992
385.78	1.969
385.98	1.990
386.19	1.962
386.40	1.969
386.60	2.005
386.81	1.986
387.02	1.978
387.22	1.985
387.43	1.995
387.64	1.997
387.84	1.999
388.05	2.016
388.26	2.003
388.46	2.008
388.67	2.043
388.88	2.058
389.08	2.073
389.29	2.086
389.49	2.070
389.70	2.077
389.91	2.046
390.11	2.029
390.32	2.019
390.53	2.019
390.73	2.032
390.94	1.975
391.15	1.990
391.35	1.971
391.56	1.993
391.77	1.999
391.97	1.996
392.18	2.030
392.38	2.076
392.59	2.088
392.80	2.095
393.00	2.098
393.21	2.123
393.42	2.105
393.62	2.115
393.83	2.088
394.04	2.102
394.24	2.101
394.45	2.088
394.65	2.070
394.86	2.050
395.07	2.050
395.27	2.036
395.48	2.024
395.68	2.010
395.89	2.008
396.10	2.033
396.30	2.021
396.51	2.052
396.72	2.066
396.92	2.031
397.13	2.040
397.33	2.015
397.54	2.043
397.75	2.039
397.95	2.050
398.16	2.036
398.36	2.019
398.57	2.011
398.78	1.959
398.98	1.964
399.19	1.987
399.39	1.989
399.60	2.013
399.81	2.007
400.01	2.016
400.22	2.024
400.42	2.069
400.63	2.051
400.84	2.069
401.04	2.109
401.25	2.084
401.45	2.093
401.66	2.080
401.86	2.070
402.07	2.062
402.28	2.079
402.48	2.081
402.69	2.044
402.89	2.070
403.10	2.073
403.31	2.061
403.51	2.063
403.72	2.058
403.92	2.090
404.13	2.086
404.33	2.080
404.54	2.082
404.75	2.079
404.95	2.108
405.16	2.074
405.36	2.059
405.57	2.055
405.77	2.078
405.98	2.088
406.18	2.081
406.39	2.065
406.60	2.050
406.80	2.046
407.01	2.059
407.21	2.038
407.42	2.072
407.62	2.084
407.83	2.079
408.03	2.056
408.24	2.039
408.45	2.022
408.65	2.068
408.86	2.118
409.06	2.122
409.27	2.120
409.47	2.101
409.68	2.079
409.88	2.092
410.09	2.112
410.29	2.117
410.50	2.135
410.71	2.156
410.91	2.157
411.12	2.141
411.32	2.127
411.53	2.141
411.73	2.159
411.94	2.147
412.14	2.149
412.35	2.143
412.55	2.162
412.76	2.155
412.96	2.173
413.17	2.156
413.37	2.161
413.58	2.198
413.78	2.177
413.99	2.174
414.19	2.219
414.40	2.210
414.61	2.200
414.81	2.199
415.02	2.217
415.22	2.169
415.43	2.166
415.63	2.161
415.84	2.144
416.04	2.156
416.25	2.149
416.45	2.141
416.66	2.160
416.86	2.162
417.07	2.165
417.27	2.143
417.48	2.157
417.68	2.167
417.89	2.183
418.09	2.169
418.30	2.160
418.50	2.159
418.71	2.141
418.91	2.124
419.12	2.114
419.32	2.105
419.53	2.117
419.73	2.124
419.94	2.127
420.14	2.111
420.34	2.124
420.55	2.122
420.75	2.132
420.96	2.140
421.16	2.138
421.37	2.145
421.57	2.159
421.78	2.151
421.98	2.142
422.19	2.133
422.39	2.147
422.60	2.151
422.80	2.165
423.01	2.165
423.21	2.181
423.42	2.183
423.62	2.183
423.83	2.173
424.03	2.185
424.23	2.206
424.44	2.208
424.64	2.204
424.85	2.199
425.05	2.200
425.26	2.215
425.46	2.209
425.67	2.207
425.87	2.212
426.08	2.227
426.28	2.207
426.48	2.192
426.69	2.202
426.89	2.199
427.10	2.225
427.30	2.241
427.51	2.217
427.71	2.209
427.92	2.211
428.12	2.215
428.32	2.200
428.53	2.229
428.73	2.221
428.94	2.212
429.14	2.214
429.35	2.193
429.55	2.173
429.76	2.204
429.96	2.222
430.16	2.251
430.37	2.268
430.57	2.272
430.78	2.286
430.98	2.292
431.19	2.280
431.39	2.269
431.59	2.245
431.80	2.246
432.00	2.203
432.21	2.197
432.41	2.172
432.61	2.159
432.82	2.153
433.02	2.149
433.23	2.144
433.43	2.157
433.64	2.171
433.84	2.190
434.04	2.190
434.25	2.204
434.45	2.206
434.66	2.219
434.86	2.220
435.06	2.226
435.27	2.201
435.47	2.211
435.68	2.177
435.88	2.152
436.08	2.143
436.29	2.142
436.49	2.156
436.70	2.154
436.90	2.143
437.10	2.156
437.31	2.147
437.51	2.165
437.71	2.166
437.92	2.190
438.12	2.202
438.33	2.214
438.53	2.218
438.73	2.218
438.94	2.218
439.14	2.234
439.35	2.228
439.55	2.245
439.75	2.234
439.96	2.233
440.16	2.231
440.36	2.232
440.57	2.214
440.77	2.215
440.97	2.217
441.18	2.227
441.38	2.229
441.59	2.229
441.79	2.217
441.99	2.229
442.20	2.204
442.40	2.207
442.60	2.211
442.81	2.219
443.01	2.203
443.21	2.192
443.42	2.187
443.62	2.188
443.83	2.201
444.03	2.210
444.23	2.201
444.44	2.225
444.64	2.232
444.84	2.226
445.05	2.225
445.25	2.228
445.45	2.235
445.66	2.236
445.86	2.228
446.06	2.226
446.27	2.227
446.47	2.231
446.67	2.244
446.88	2.241
447.08	2.253
447.28	2.259
447.49	2.271
447.69	2.276
447.89	2.282
448.10	2.293
448.30	2.298
448.50	2.290
448.71	2.276
448.91	2.270
449.11	2.274
449.32	2.270
449.52	2.290
449.72	2.285
449.93	2.268
450.13	2.253
450.33	2.257
450.53	2.233
450.74	2.235
450.94	2.249
451.14	2.242
451.35	2.253
451.55	2.264
451.75	2.250
451.96	2.252
452.16	2.260
452.36	2.261
452.57	2.264
452.77	2.291
452.97	2.296
453.17	2.292
453.38	2.293
453.58	2.270
453.78	2.242
453.99	2.238
454.19	2.241
454.39	2.250
454.59	2.268
454.80	2.263
455.00	2.260
455.20	2.251
455.41	2.252
455.61	2.258
455.81	2.271
456.01	2.290
456.22	2.307
456.42	2.297
456.62	2.296
456.83	2.294
457.03	2.286
457.23	2.261
457.43	2.269
457.64	2.288
457.84	2.276
458.04	2.285
458.25	2.284
458.45	2.269
458.65	2.266
458.85	2.260
459.06	2.250
459.26	2.239
459.46	2.247
459.66	2.253
459.87	2.249
460.07	2.266
460.27	2.259
460.47	2.259
460.68	2.273
460.88	2.274
461.08	2.275
461.28	2.287
461.49	2.297
461.69	2.311
461.89	2.319
462.09	2.320
462.30	2.301
462.50	2.301
462.70	2.305
462.90	2.286
463.11	2.311
463.31	2.305
463.51	2.280
463.71	2.284
463.92	2.285
464.12	2.275
464.32	2.267
464.52	2.265
464.72	2.281
464.93	2.265
465.13	2.264
465.33	2.246
465.53	2.253
465.74	2.280
465.94	2.260
466.14	2.259
466.34	2.250
466.54	2.250
466.75	2.239
466.95	2.232
467.15	2.236
467.35	2.242
467.56	2.249
467.76	2.259
467.96	2.256
468.16	2.260
468.36	2.246
468.57	2.266
468.77	2.280
468.97	2.293
469.17	2.290
469.37	2.291
469.58	2.287
469.78	2.280
469.98	2.281
470.18	2.268
470.38	2.272
470.59	2.271
470.79	2.259
470.99	2.241
471.19	2.234
471.39	2.249
471.60	2.240
471.80	2.237
472.00	2.243
472.20	2.235
472.40	2.246
472.61	2.255
472.81	2.270
473.01	2.263
473.21	2.266
473.41	2.268
473.61	2.256
473.82	2.289
474.02	2.298
474.22	2.305
474.42	2.306
474.62	2.306
474.82	2.325
475.03	2.332
475.23	2.338
475.43	2.360
475.63	2.368
475.83	2.368
476.03	2.346
476.24	2.330
476.44	2.333
476.64	2.336
476.84	2.332
477.04	2.316
477.24	2.304
477.45	2.312
477.65	2.308
477.85	2.298
478.05	2.294
478.25	2.295
478.45	2.313
478.65	2.312
478.86	2.310
479.06	2.303
479.26	2.318
479.46	2.324
479.66	2.328
479.86	2.321
480.06	2.332
480.27	2.329
480.47	2.330
480.67	2.314
480.87	2.307
481.07	2.303
481.27	2.320
481.47	2.313
481.68	2.314
481.88	2.322
482.08	2.326
482.28	2.342
482.48	2.356
482.68	2.364
482.88	2.380
483.08	2.403
483.29	2.410
483.49	2.389
483.69	2.371
483.89	2.366
484.09	2.363
484.29	2.359
484.49	2.358
484.69	2.358
484.89	2.359
485.10	2.355
485.30	2.336
485.50	2.337
485.70	2.354
485.90	2.383
486.10	2.397
486.30	2.406
486.50	2.417
486.70	2.411
486.90	2.405
487.11	2.399
487.31	2.395
487.51	2.382
487.71	2.370
487.91	2.369
488.11	2.362
488.31	2.366
488.51	2.361
488.71	2.358
488.91	2.363
