OOIBase32 Version 2.0.6.5 Data File
++++++++++++++++++++++++++++++++++++
Date: 11-17-2016, 11:09:40
User: Valued Ocean Optics Customer
Spectrometer Serial Number: USB4C01507
Spectrometer Channel: Master
Integration Time (msec): 49
Spectra Averaged: 25
Boxcar Smoothing: 5
Correct for Electrical Dark: Enabled
Time Normalized: Disabled
Dual-beam Reference: Disabled
Reference Channel: Master
Temperature: Not acquired
Spectrometer Type: S4000
ADC Type: USB4000
Number of Pixels in File: 3648
Graph Title: 
>>>>>Begin Spectral Data<<<<<
178.53	1659.330
178.74	2275.230
178.96	78.438
179.18	-7.987
179.39	169.498
179.61	-60.098
179.82	50.505
180.04	225.582
180.25	108.628
180.47	7.179
180.69	124.577
180.90	398.156
181.12	241.649
181.33	178.817
181.55	57.672
181.76	-8709.621
181.98	-42.973
182.20	505.329
182.41	37.771
182.63	90.305
182.84	32.091
183.06	25.366
183.27	19.745
183.49	14.980
183.71	17.477
183.92	9.647
184.14	13.686
184.35	28.046
184.57	18.450
184.78	33.844
185.00	33.876
185.21	39.242
185.43	36.903
185.65	32.881
185.86	31.144
186.08	25.795
186.29	25.694
186.51	24.301
186.72	12.002
186.94	13.765
187.15	6.142
187.37	-0.948
187.58	-2.825
187.80	0.057
188.02	-0.232
188.23	0.866
188.45	-3.195
188.66	2.778
188.88	5.115
189.09	14.785
189.31	21.248
189.52	22.085
189.74	24.523
189.95	32.473
190.17	28.808
190.38	31.781
190.60	35.086
190.82	41.086
191.03	32.583
191.25	34.898
191.46	27.730
191.68	19.869
191.89	18.261
192.11	22.314
192.32	13.082
192.54	13.323
192.75	16.934
192.97	14.327
193.18	17.081
193.40	22.925
193.61	20.834
193.83	26.907
194.04	22.295
194.26	26.546
194.48	19.430
194.69	21.262
194.91	23.537
195.12	21.593
195.34	24.937
195.55	21.125
195.77	11.846
195.98	13.869
196.20	15.755
196.41	20.317
196.63	18.720
196.84	19.135
197.06	20.333
197.27	21.716
197.49	23.053
197.70	23.503
197.92	21.390
198.13	26.142
198.35	19.388
198.56	15.853
198.78	13.305
198.99	10.508
199.21	7.013
199.42	6.133
199.64	5.997
199.85	5.633
200.07	7.343
200.28	11.947
200.50	9.881
200.71	14.447
200.93	17.503
201.14	17.409
201.36	15.692
201.57	22.341
201.79	25.014
202.00	22.362
202.22	22.248
202.43	23.303
202.65	19.469
202.86	16.435
203.08	14.866
203.29	8.297
203.51	8.528
203.72	10.051
203.94	12.448
204.15	10.576
204.37	13.241
204.58	15.102
204.80	15.400
205.01	16.923
205.22	21.872
205.44	22.477
205.65	21.986
205.87	22.640
206.08	23.370
206.30	20.539
206.51	18.477
206.73	16.553
206.94	12.302
207.16	8.006
207.37	9.223
207.59	7.168
207.80	8.578
208.02	10.409
208.23	9.463
208.45	12.315
208.66	8.508
208.88	8.875
209.09	9.455
209.30	15.280
209.52	14.996
209.73	14.416
209.95	15.829
210.16	12.262
210.38	15.032
210.59	15.639
210.81	9.295
211.02	11.472
211.24	10.189
211.45	8.005
211.66	7.628
211.88	9.065
212.09	7.054
212.31	7.494
212.52	9.225
212.74	4.787
212.95	3.690
213.17	6.410
213.38	8.973
213.60	13.674
213.81	13.893
214.02	12.404
214.24	10.609
214.45	8.592
214.67	7.207
214.88	7.555
215.10	10.293
215.31	9.800
215.53	9.687
215.74	7.656
215.95	6.243
216.17	5.646
216.38	5.147
216.60	5.485
216.81	10.251
217.03	9.268
217.24	8.246
217.45	9.548
217.67	10.414
217.88	12.172
218.10	12.418
218.31	11.395
218.53	11.872
218.74	11.136
218.95	8.203
219.17	5.901
219.38	7.129
219.60	9.093
219.81	7.513
220.03	7.028
220.24	4.876
220.45	3.927
220.67	3.763
220.88	4.430
221.10	5.812
221.31	6.584
221.53	6.484
221.74	5.436
221.95	4.221
222.17	2.762
222.38	3.508
222.60	3.010
222.81	2.038
223.02	2.651
223.24	2.695
223.45	2.519
223.67	1.846
223.88	1.942
224.09	2.515
224.31	2.936
224.52	4.259
224.74	2.825
224.95	4.013
225.16	4.761
225.38	4.043
225.59	4.328
225.81	3.335
226.02	3.359
226.23	2.958
226.45	2.658
226.66	2.317
226.88	2.109
227.09	2.989
227.30	2.615
227.52	2.713
227.73	2.822
227.95	2.662
228.16	2.911
228.37	3.000
228.59	3.064
228.80	3.165
229.02	3.220
229.23	3.211
229.44	3.077
229.66	3.044
229.87	3.085
230.08	3.037
230.30	3.073
230.51	3.011
230.73	3.075
230.94	3.064
231.15	2.805
231.37	2.603
231.58	2.541
231.80	2.412
232.01	2.652
232.22	2.571
232.44	2.772
232.65	2.836
232.86	2.487
233.08	2.237
233.29	2.200
233.51	2.549
233.72	2.653
233.93	2.820
234.15	2.885
234.36	2.726
234.57	2.642
234.79	2.552
235.00	2.636
235.21	3.029
235.43	3.374
235.64	3.173
235.86	3.092
236.07	3.105
236.28	2.783
236.50	2.770
236.71	3.042
236.92	3.419
237.14	3.609
237.35	3.642
237.56	3.544
237.78	3.344
237.99	3.577
238.20	3.409
238.42	3.749
238.63	3.741
238.84	4.089
239.06	3.883
239.27	3.377
239.48	3.196
239.70	3.033
239.91	2.653
240.13	2.490
240.34	2.519
240.55	2.544
240.77	2.412
240.98	2.569
241.19	2.492
241.41	2.378
241.62	2.369
241.83	2.364
242.05	2.452
242.26	2.582
242.47	2.668
242.69	2.632
242.90	2.670
243.11	2.649
243.33	2.620
243.54	2.623
243.75	2.690
243.97	2.850
244.18	2.919
244.39	2.979
244.61	2.853
244.82	2.809
245.03	2.833
245.24	2.804
245.46	2.750
245.67	2.726
245.88	2.705
246.10	2.709
246.31	2.622
246.52	2.533
246.74	2.469
246.95	2.485
247.16	2.487
247.38	2.470
247.59	2.479
247.80	2.492
248.02	2.512
248.23	2.508
248.44	2.548
248.66	2.597
248.87	2.656
249.08	2.698
249.29	2.795
249.51	2.825
249.72	2.987
249.93	3.110
250.15	3.163
250.36	3.034
250.57	2.927
250.79	2.950
251.00	2.913
251.21	2.975
251.42	2.942
251.64	2.834
251.85	2.841
252.06	2.801
252.28	2.569
252.49	2.592
252.70	2.653
252.91	2.711
253.13	2.591
253.34	2.623
253.55	2.633
253.77	2.597
253.98	2.732
254.19	2.635
254.40	2.454
254.62	2.750
254.83	2.569
255.04	2.553
255.26	2.523
255.47	2.524
255.68	2.438
255.89	2.412
256.11	2.452
256.32	2.285
256.53	2.469
256.75	2.552
256.96	2.361
257.17	2.512
257.38	2.773
257.60	2.735
257.81	2.700
258.02	2.620
258.23	2.537
258.45	2.462
258.66	2.452
258.87	2.340
259.09	2.321
259.30	2.339
259.51	2.310
259.72	2.235
259.94	2.217
260.15	2.215
260.36	2.239
260.57	2.227
260.79	2.233
261.00	2.189
261.21	2.182
261.42	2.216
261.64	2.199
261.85	2.201
262.06	2.163
262.27	2.350
262.49	2.329
262.70	2.307
262.91	2.326
263.12	2.356
263.34	2.426
263.55	2.400
263.76	2.334
263.97	2.459
264.19	2.510
264.40	2.546
264.61	2.445
264.82	2.473
265.04	2.513
265.25	2.527
265.46	2.488
265.67	2.537
265.88	2.593
266.10	2.477
266.31	2.361
266.52	2.228
266.73	2.317
266.95	2.238
267.16	2.313
267.37	2.223
267.58	2.201
267.80	2.289
268.01	2.247
268.22	2.252
268.43	2.340
268.64	2.415
268.86	2.469
269.07	2.395
269.28	2.306
269.49	2.231
269.71	2.260
269.92	2.208
270.13	2.230
270.34	2.209
270.55	2.249
270.77	2.303
270.98	2.262
271.19	2.354
271.40	2.267
271.61	2.301
271.83	2.291
272.04	2.309
272.25	2.437
272.46	2.339
272.68	2.366
272.89	2.363
273.10	2.298
273.31	2.264
273.52	2.240
273.74	2.301
273.95	2.266
274.16	2.299
274.37	2.317
274.58	2.296
274.80	2.385
275.01	2.398
275.22	2.390
275.43	2.459
275.64	2.483
275.86	2.521
276.07	2.432
276.28	2.586
276.49	2.602
276.70	2.552
276.91	2.434
277.13	2.297
277.34	2.336
277.55	2.338
277.76	2.311
277.97	2.313
278.19	2.270
278.40	2.336
278.61	2.229
278.82	2.162
279.03	2.104
279.24	2.125
279.46	2.172
279.67	2.138
279.88	1.983
280.09	1.990
280.30	2.019
280.52	2.035
280.73	2.023
280.94	1.962
281.15	2.058
281.36	2.142
281.57	2.158
281.79	2.279
282.00	2.278
282.21	2.409
282.42	2.398
282.63	2.476
282.84	2.390
283.06	2.449
283.27	2.531
283.48	2.424
283.69	2.408
283.90	2.453
284.11	2.266
284.32	2.257
284.54	2.193
284.75	2.173
284.96	2.055
285.17	2.080
285.38	2.045
285.59	2.050
285.81	2.127
286.02	2.162
286.23	2.144
286.44	2.200
286.65	2.231
286.86	2.253
287.07	2.227
287.29	2.260
287.50	2.285
287.71	2.289
287.92	2.329
288.13	2.319
288.34	2.261
288.55	2.273
288.77	2.297
288.98	2.251
289.19	2.288
289.40	2.381
289.61	2.449
289.82	2.408
290.03	2.369
290.24	2.372
290.46	2.313
290.67	2.449
290.88	2.448
291.09	2.399
291.30	2.396
291.51	2.379
291.72	2.426
291.93	2.409
292.15	2.432
292.36	2.598
292.57	2.548
292.78	2.512
292.99	2.334
293.20	2.364
293.41	2.392
293.62	2.406
293.84	2.438
294.05	2.305
294.26	2.239
294.47	2.316
294.68	2.240
294.89	2.313
295.10	2.324
295.31	2.390
295.52	2.337
295.73	2.351
295.95	2.342
296.16	2.379
296.37	2.548
296.58	2.606
296.79	2.524
297.00	2.519
297.21	2.470
297.42	2.497
297.63	2.489
297.84	2.480
298.06	2.474
298.27	2.533
298.48	2.545
298.69	2.379
298.90	2.350
299.11	2.439
299.32	2.442
299.53	2.424
299.74	2.398
299.95	2.408
300.16	2.392
300.38	2.465
300.59	2.354
300.80	2.326
301.01	2.338
301.22	2.313
301.43	2.299
301.64	2.244
301.85	2.270
302.06	2.280
302.27	2.243
302.48	2.351
302.69	2.207
302.91	2.305
303.12	2.322
303.33	2.349
303.54	2.389
303.75	2.310
303.96	2.382
304.17	2.355
304.38	2.360
304.59	2.413
304.80	2.408
305.01	2.481
305.22	2.384
305.43	2.349
305.64	2.371
305.85	2.296
306.06	2.338
306.28	2.313
306.49	2.322
306.70	2.305
306.91	2.213
307.12	2.137
307.33	2.086
307.54	2.212
307.75	2.188
307.96	2.171
308.17	2.222
308.38	2.289
308.59	2.277
308.80	2.299
309.01	2.371
309.22	2.408
309.43	2.444
309.64	2.492
309.85	2.404
310.06	2.450
310.27	2.479
310.48	2.435
310.70	2.444
310.91	2.470
311.12	2.450
311.33	2.441
311.54	2.418
311.75	2.384
311.96	2.384
312.17	2.392
312.38	2.382
312.59	2.385
312.80	2.408
313.01	2.396
313.22	2.402
313.43	2.436
313.64	2.419
313.85	2.441
314.06	2.502
314.27	2.545
314.48	2.672
314.69	2.732
314.90	2.776
315.11	2.790
315.32	2.794
315.53	2.811
315.74	2.787
315.95	2.843
316.16	2.854
316.37	2.792
316.58	2.779
316.79	2.684
317.00	2.654
317.21	2.522
317.42	2.502
317.63	2.475
317.84	2.425
318.05	2.474
318.26	2.374
318.47	2.333
318.68	2.418
318.89	2.421
319.10	2.438
319.31	2.431
319.52	2.565
319.73	2.539
319.94	2.535
320.15	2.524
320.36	2.551
320.57	2.568
320.78	2.635
320.99	2.569
321.20	2.517
321.41	2.516
321.62	2.437
321.83	2.400
322.04	2.496
322.25	2.485
322.46	2.511
322.67	2.488
322.88	2.493
323.09	2.437
323.30	2.454
323.51	2.463
323.72	2.486
323.93	2.519
324.14	2.564
324.35	2.555
324.56	2.603
324.77	2.573
324.98	2.550
325.19	2.573
325.40	2.628
325.61	2.676
325.82	2.748
326.03	2.746
326.24	2.798
326.45	2.731
326.65	2.675
326.86	2.641
327.07	2.757
327.28	2.802
327.49	2.819
327.70	2.812
327.91	2.808
328.12	2.820
328.33	2.798
328.54	2.790
328.75	2.883
328.96	2.964
329.17	2.949
329.38	2.874
329.59	2.861
329.80	2.872
330.01	2.932
330.22	2.945
330.43	2.927
330.64	2.963
330.85	2.953
331.05	2.874
331.26	2.874
331.47	2.870
331.68	2.886
331.89	2.932
332.10	2.930
332.31	2.902
332.52	2.855
332.73	2.798
332.94	2.854
333.15	2.851
333.36	2.915
333.57	2.904
333.78	2.920
333.99	2.930
334.19	2.898
334.40	2.929
334.61	2.965
334.82	3.051
335.03	3.053
335.24	3.039
335.45	3.074
335.66	3.114
335.87	3.136
336.08	3.177
336.29	3.192
336.50	3.220
336.71	3.220
336.91	3.237
337.12	3.172
337.33	3.237
337.54	3.230
337.75	3.206
337.96	3.098
338.17	3.106
338.38	3.094
338.59	3.149
338.80	3.106
339.01	3.095
339.21	3.056
339.42	3.103
339.63	3.065
339.84	3.133
340.05	3.151
340.26	3.202
340.47	3.212
340.68	3.256
340.89	3.219
341.10	3.244
341.30	3.289
341.51	3.325
341.72	3.330
341.93	3.381
342.14	3.289
342.35	3.329
342.56	3.317
342.77	3.368
342.98	3.310
343.18	3.314
343.39	3.306
343.60	3.308
343.81	3.345
344.02	3.356
344.23	3.370
344.44	3.379
344.65	3.348
344.85	3.388
345.06	3.334
345.27	3.408
345.48	3.367
345.69	3.459
345.90	3.499
346.11	3.469
346.32	3.440
346.52	3.433
346.73	3.474
346.94	3.499
347.15	3.526
347.36	3.532
347.57	3.522
347.78	3.581
347.98	3.558
348.19	3.491
348.40	3.491
348.61	3.534
348.82	3.558
349.03	3.606
349.24	3.603
349.44	3.565
349.65	3.579
349.86	3.596
350.07	3.619
350.28	3.620
350.49	3.653
350.70	3.674
350.90	3.694
351.11	3.665
351.32	3.611
351.53	3.636
351.74	3.618
351.95	3.644
352.15	3.615
352.36	3.642
352.57	3.641
352.78	3.690
352.99	3.735
353.20	3.772
353.40	3.816
353.61	3.835
353.82	3.836
354.03	3.911
354.24	3.871
354.45	3.913
354.65	3.938
354.86	3.946
355.07	3.922
355.28	3.902
355.49	3.870
355.70	3.843
355.90	3.873
356.11	3.902
356.32	3.904
356.53	3.948
356.74	3.961
356.94	3.925
357.15	3.922
357.36	3.934
357.57	3.963
357.78	3.957
357.99	3.972
358.19	3.950
358.40	3.930
358.61	3.947
358.82	3.979
359.03	3.984
359.23	3.987
359.44	4.010
359.65	4.005
359.86	4.029
360.07	4.058
360.27	4.112
360.48	4.152
360.69	4.188
360.90	4.178
361.11	4.245
361.31	4.235
361.52	4.272
361.73	4.270
361.94	4.286
362.15	4.265
362.35	4.271
362.56	4.278
362.77	4.255
362.98	4.281
363.18	4.291
363.39	4.241
363.60	4.305
363.81	4.294
364.02	4.310
364.22	4.326
364.43	4.308
364.64	4.314
364.85	4.274
365.05	4.317
365.26	4.292
365.47	4.341
365.68	4.316
365.89	4.278
366.09	4.327
366.30	4.336
366.51	4.346
366.72	4.362
366.92	4.417
367.13	4.478
367.34	4.477
367.55	4.493
367.75	4.490
367.96	4.527
368.17	4.536
368.38	4.497
368.58	4.481
368.79	4.482
369.00	4.496
369.21	4.473
369.41	4.457
369.62	4.444
369.83	4.436
370.04	4.416
370.24	4.406
370.45	4.433
370.66	4.454
370.87	4.434
371.07	4.384
371.28	4.386
371.49	4.370
371.70	4.360
371.90	4.376
372.11	4.392
372.32	4.419
372.53	4.437
372.73	4.441
372.94	4.420
373.15	4.503
373.36	4.571
373.56	4.607
373.77	4.607
373.98	4.646
374.19	4.671
374.39	4.694
374.60	4.721
374.81	4.752
375.01	4.747
375.22	4.771
375.43	4.757
375.64	4.740
375.84	4.759
376.05	4.810
376.26	4.811
376.46	4.756
376.67	4.765
376.88	4.766
377.09	4.727
377.29	4.735
377.50	4.732
377.71	4.774
377.91	4.826
378.12	4.819
378.33	4.827
378.54	4.842
378.74	4.870
378.95	4.847
379.16	4.851
379.36	4.856
379.57	4.866
379.78	4.925
379.99	4.894
380.19	4.863
380.40	4.845
380.61	4.799
380.81	4.774
381.02	4.802
381.23	4.819
381.43	4.824
381.64	4.899
381.85	4.909
382.05	4.895
382.26	4.928
382.47	4.936
382.67	4.971
382.88	5.006
383.09	5.049
383.30	5.092
383.50	5.123
383.71	5.105
383.92	5.063
384.12	5.088
384.33	5.023
384.54	5.005
384.74	5.041
384.95	5.038
385.16	5.048
385.36	5.038
385.57	5.030
385.78	5.026
385.98	5.041
386.19	5.047
386.40	5.028
386.60	5.075
386.81	5.082
387.02	5.081
387.22	5.094
387.43	5.106
387.64	5.132
387.84	5.148
388.05	5.165
388.26	5.179
388.46	5.207
388.67	5.256
388.88	5.286
389.08	5.296
389.29	5.283
389.49	5.296
389.70	5.292
389.91	5.269
390.11	5.250
390.32	5.267
390.53	5.272
390.73	5.279
390.94	5.263
391.15	5.270
391.35	5.284
391.56	5.314
391.77	5.322
391.97	5.349
392.18	5.394
392.38	5.437
392.59	5.437
392.80	5.457
393.00	5.465
393.21	5.491
393.42	5.509
393.62	5.528
393.83	5.551
394.04	5.566
394.24	5.559
394.45	5.545
394.65	5.539
394.86	5.545
395.07	5.555
395.27	5.550
395.48	5.518
395.68	5.554
395.89	5.573
396.10	5.567
396.30	5.548
396.51	5.569
396.72	5.598
396.92	5.592
397.13	5.572
397.33	5.570
397.54	5.567
397.75	5.625
397.95	5.617
398.16	5.584
398.36	5.585
398.57	5.611
398.78	5.606
398.98	5.613
399.19	5.627
399.39	5.665
399.60	5.681
399.81	5.716
400.01	5.705
400.22	5.712
400.42	5.767
400.63	5.768
400.84	5.791
401.04	5.817
401.25	5.807
401.45	5.830
401.66	5.830
401.86	5.837
402.07	5.864
402.28	5.909
402.48	5.905
402.69	5.905
402.89	5.939
403.10	5.933
403.31	5.949
403.51	5.957
403.72	5.985
403.92	6.022
404.13	6.020
404.33	6.012
404.54	5.991
404.75	6.011
404.95	6.032
405.16	6.027
405.36	6.044
405.57	6.042
405.77	6.074
405.98	6.046
406.18	6.042
406.39	6.053
406.60	6.078
406.80	6.082
407.01	6.072
407.21	6.065
407.42	6.110
407.62	6.124
407.83	6.127
408.03	6.126
408.24	6.161
408.45	6.160
408.65	6.204
408.86	6.223
409.06	6.255
409.27	6.267
409.47	6.264
409.68	6.247
409.88	6.275
410.09	6.302
410.29	6.297
410.50	6.321
410.71	6.344
410.91	6.345
411.12	6.350
411.32	6.352
411.53	6.371
411.73	6.400
411.94	6.405
412.14	6.429
412.35	6.463
412.55	6.498
412.76	6.490
412.96	6.499
413.17	6.510
413.37	6.512
413.58	6.537
413.78	6.573
413.99	6.605
414.19	6.659
414.40	6.638
414.61	6.632
414.81	6.651
415.02	6.664
415.22	6.669
415.43	6.687
415.63	6.707
415.84	6.718
416.04	6.726
416.25	6.716
416.45	6.695
416.66	6.721
416.86	6.723
417.07	6.727
417.27	6.743
417.48	6.762
417.68	6.785
417.89	6.789
418.09	6.799
418.30	6.798
418.50	6.780
418.71	6.800
418.91	6.811
419.12	6.828
419.32	6.830
419.53	6.840
419.73	6.876
419.94	6.874
420.14	6.880
420.34	6.886
420.55	6.894
420.75	6.938
420.96	6.945
421.16	6.943
421.37	6.965
421.57	6.993
421.78	7.002
421.98	6.987
422.19	7.002
422.39	7.040
422.60	7.061
422.80	7.080
423.01	7.092
423.21	7.129
423.42	7.159
423.62	7.140
423.83	7.124
424.03	7.134
424.23	7.152
424.44	7.142
424.64	7.146
424.85	7.152
425.05	7.156
425.26	7.171
425.46	7.170
425.67	7.166
425.87	7.194
426.08	7.240
426.28	7.256
426.48	7.271
426.69	7.331
426.89	7.342
427.10	7.380
427.30	7.433
427.51	7.462
427.71	7.476
427.92	7.490
428.12	7.517
428.32	7.521
428.53	7.546
428.73	7.572
428.94	7.587
429.14	7.596
429.35	7.598
429.55	7.599
429.76	7.608
429.96	7.618
430.16	7.678
430.37	7.699
430.57	7.709
430.78	7.744
430.98	7.758
431.19	7.771
431.39	7.789
431.59	7.815
431.80	7.834
432.00	7.821
432.21	7.831
432.41	7.825
432.61	7.843
432.82	7.864
433.02	7.866
433.23	7.869
433.43	7.871
433.64	7.876
433.84	7.879
434.04	7.884
434.25	7.907
434.45	7.939
434.66	7.947
434.86	7.956
435.06	7.971
435.27	7.997
435.47	8.021
435.68	8.033
435.88	8.063
436.08	8.070
436.29	8.084
436.49	8.112
436.70	8.103
436.90	8.121
437.10	8.142
437.31	8.156
437.51	8.158
437.71	8.174
437.92	8.204
438.12	8.215
438.33	8.246
438.53	8.263
438.73	8.273
438.94	8.304
439.14	8.320
439.35	8.320
439.55	8.332
439.75	8.343
439.96	8.347
440.16	8.345
440.36	8.351
440.57	8.356
440.77	8.375
440.97	8.378
441.18	8.385
441.38	8.387
441.59	8.408
441.79	8.421
441.99	8.450
442.20	8.469
442.40	8.500
442.60	8.527
442.81	8.541
443.01	8.549
443.21	8.574
443.42	8.589
443.62	8.625
443.83	8.637
444.03	8.669
444.23	8.678
444.44	8.705
444.64	8.720
444.84	8.719
445.05	8.729
445.25	8.738
445.45	8.749
445.66	8.747
445.86	8.741
446.06	8.748
446.27	8.746
446.47	8.751
446.67	8.753
446.88	8.760
447.08	8.790
447.28	8.810
447.49	8.824
447.69	8.843
447.89	8.876
448.10	8.925
448.30	8.954
448.50	8.969
448.71	8.997
448.91	9.026
449.11	9.050
449.32	9.067
449.52	9.088
449.72	9.124
449.93	9.137
450.13	9.141
450.33	9.152
450.53	9.173
450.74	9.217
450.94	9.249
451.14	9.271
451.35	9.292
451.55	9.296
451.75	9.315
451.96	9.309
452.16	9.328
452.36	9.349
452.57	9.359
452.77	9.388
452.97	9.393
453.17	9.386
453.38	9.407
453.58	9.420
453.78	9.437
453.99	9.452
454.19	9.500
454.39	9.542
454.59	9.583
454.80	9.599
455.00	9.609
455.20	9.612
455.41	9.637
455.61	9.647
455.81	9.685
456.01	9.724
456.22	9.757
456.42	9.760
456.62	9.769
456.83	9.779
457.03	9.802
457.23	9.819
457.43	9.869
457.64	9.896
457.84	9.900
458.04	9.908
458.25	9.913
458.45	9.923
458.65	9.940
458.85	9.939
459.06	9.929
459.26	9.930
459.46	9.933
459.66	9.929
459.87	9.933
460.07	9.944
460.27	9.950
460.47	9.954
460.68	9.979
460.88	9.982
461.08	10.003
461.28	10.038
461.49	10.068
461.69	10.111
461.89	10.149
462.09	10.178
462.30	10.209
462.50	10.235
462.70	10.270
462.90	10.268
463.11	10.327
463.31	10.352
463.51	10.373
463.71	10.405
463.92	10.418
464.12	10.429
464.32	10.439
464.52	10.448
464.72	10.480
464.93	10.496
465.13	10.503
465.33	10.496
465.53	10.502
465.74	10.517
465.94	10.522
466.14	10.543
466.34	10.552
466.54	10.556
466.75	10.581
466.95	10.580
467.15	10.610
467.35	10.632
467.56	10.650
467.76	10.678
467.96	10.701
468.16	10.714
468.36	10.728
468.57	10.769
468.77	10.811
468.97	10.838
469.17	10.853
469.37	10.860
469.58	10.889
469.78	10.916
469.98	10.920
470.18	10.942
470.38	10.970
470.59	10.978
470.79	10.989
470.99	11.014
471.19	11.026
471.39	11.062
471.60	11.074
471.80	11.076
472.00	11.091
472.20	11.119
472.40	11.125
472.61	11.142
472.81	11.166
473.01	11.177
473.21	11.163
473.41	11.187
473.61	11.178
473.82	11.229
474.02	11.256
474.22	11.280
474.42	11.301
474.62	11.338
474.82	11.364
475.03	11.411
475.23	11.434
475.43	11.490
475.63	11.509
475.83	11.550
476.03	11.544
476.24	11.552
476.44	11.572
476.64	11.585
476.84	11.579
477.04	11.596
477.24	11.589
477.45	11.626
477.65	11.632
477.85	11.641
478.05	11.640
478.25	11.654
478.45	11.675
478.65	11.688
478.86	11.711
479.06	11.729
479.26	11.749
479.46	11.784
479.66	11.788
479.86	11.807
480.06	11.846
480.27	11.884
480.47	11.896
480.67	11.919
480.87	11.926
481.07	11.952
481.27	11.993
481.47	12.011
481.68	12.019
481.88	12.054
482.08	12.108
482.28	12.175
482.48	12.251
482.68	12.329
482.88	12.423
483.08	12.606
483.29	12.697
483.49	12.639
483.69	12.577
483.89	12.544
484.09	12.524
484.29	12.499
484.49	12.480
484.69	12.462
484.89	12.441
485.10	12.396
485.30	12.253
485.50	12.138
485.70	12.187
485.90	12.271
486.10	12.345
486.30	12.402
486.50	12.460
