OOIBase32 Version 2.0.6.5 Data File
++++++++++++++++++++++++++++++++++++
Date: 11-17-2016, 11:09:05
User: Valued Ocean Optics Customer
Spectrometer Serial Number: USB4C01507
Spectrometer Channel: Master
Integration Time (msec): 49
Spectra Averaged: 25
Boxcar Smoothing: 5
Correct for Electrical Dark: Enabled
Time Normalized: Disabled
Dual-beam Reference: Disabled
Reference Channel: Master
Temperature: Not acquired
Spectrometer Type: S4000
ADC Type: USB4000
Number of Pixels in File: 3648
Graph Title: 
>>>>>Begin Spectral Data<<<<<
178.53	1729.796
178.74	2225.279
178.96	71.480
179.18	-39.442
179.39	101.375
179.61	-39.329
179.82	69.945
180.04	95.485
180.25	138.766
180.47	-50.116
180.69	87.186
180.90	1010.816
181.12	807.756
181.33	162.882
181.55	15.492
181.76	-3454.117
181.98	58.268
182.20	-364.082
182.41	16.895
182.63	117.837
182.84	20.961
183.06	24.234
183.27	23.762
183.49	36.928
183.71	38.938
183.92	33.669
184.14	27.186
184.35	42.814
184.57	44.976
184.78	41.871
185.00	42.403
185.21	42.821
185.43	41.034
185.65	39.508
185.86	30.690
186.08	32.786
186.29	31.602
186.51	35.415
186.72	29.314
186.94	19.571
187.15	19.437
187.37	21.723
187.58	29.120
187.80	33.279
188.02	34.007
188.23	28.372
188.45	29.696
188.66	30.103
188.88	27.013
189.09	26.386
189.31	41.989
189.52	41.316
189.74	38.567
189.95	33.292
190.17	33.106
190.38	37.609
190.60	45.500
190.82	46.804
191.03	52.270
191.25	52.789
191.46	57.589
191.68	47.398
191.89	43.160
192.11	40.011
192.32	37.677
192.54	35.364
192.75	36.426
192.97	41.438
193.18	41.659
193.40	41.629
193.61	41.214
193.83	45.995
194.04	45.517
194.26	56.115
194.48	57.335
194.69	59.072
194.91	57.786
195.12	54.495
195.34	51.715
195.55	49.736
195.77	45.166
195.98	44.760
196.20	41.803
196.41	38.890
196.63	31.744
196.84	32.718
197.06	37.739
197.27	35.044
197.49	33.498
197.70	32.010
197.92	30.112
198.13	29.863
198.35	28.333
198.56	24.201
198.78	26.499
198.99	22.182
199.21	22.261
199.42	18.721
199.64	27.322
199.85	29.800
200.07	26.545
200.28	29.852
200.50	31.909
200.71	33.702
200.93	37.962
201.14	37.226
201.36	39.895
201.57	41.727
201.79	43.542
202.00	38.128
202.22	38.035
202.43	40.909
202.65	38.609
202.86	38.080
203.08	33.797
203.29	31.842
203.51	27.934
203.72	27.195
203.94	25.994
204.15	22.530
204.37	24.836
204.58	24.884
204.80	22.657
205.01	24.593
205.22	21.327
205.44	26.915
205.65	21.452
205.87	26.236
206.08	27.789
206.30	28.531
206.51	25.260
206.73	21.475
206.94	19.260
207.16	16.855
207.37	17.301
207.59	17.685
207.80	15.535
208.02	18.788
208.23	16.581
208.45	15.881
208.66	12.243
208.88	16.143
209.09	16.414
209.30	16.130
209.52	14.437
209.73	12.904
209.95	18.401
210.16	13.603
210.38	15.950
210.59	18.174
210.81	15.709
211.02	17.304
211.24	14.605
211.45	14.348
211.66	18.830
211.88	22.100
212.09	21.992
212.31	20.597
212.52	23.746
212.74	22.453
212.95	20.528
213.17	21.192
213.38	22.585
213.60	24.466
213.81	24.140
214.02	20.333
214.24	19.879
214.45	18.783
214.67	19.325
214.88	19.378
215.10	18.475
215.31	17.189
215.53	15.076
215.74	13.436
215.95	14.254
216.17	12.419
216.38	10.259
216.60	9.444
216.81	7.918
217.03	5.677
217.24	4.713
217.45	4.676
217.67	5.145
217.88	6.390
218.10	6.205
218.31	4.324
218.53	7.653
218.74	7.177
218.95	5.626
219.17	4.804
219.38	4.649
219.60	6.938
219.81	7.917
220.03	7.593
220.24	8.001
220.45	7.937
220.67	9.522
220.88	9.081
221.10	9.817
221.31	9.849
221.53	11.263
221.74	9.763
221.95	8.597
222.17	6.875
222.38	7.055
222.60	6.879
222.81	6.391
223.02	4.991
223.24	4.671
223.45	5.285
223.67	5.157
223.88	5.045
224.09	6.475
224.31	6.413
224.52	7.446
224.74	6.818
224.95	7.337
225.16	7.161
225.38	7.179
225.59	6.731
225.81	6.184
226.02	5.823
226.23	5.440
226.45	5.245
226.66	4.866
226.88	4.783
227.09	4.832
227.30	4.385
227.52	4.453
227.73	4.282
227.95	4.108
228.16	4.134
228.37	4.183
228.59	4.190
228.80	4.192
229.02	4.160
229.23	4.164
229.44	4.095
229.66	4.081
229.87	4.057
230.08	4.031
230.30	4.097
230.51	4.109
230.73	4.143
230.94	4.158
231.15	3.903
231.37	4.026
231.58	3.961
231.80	4.058
232.01	4.219
232.22	4.232
232.44	4.504
232.65	4.525
232.86	4.393
233.08	4.412
233.29	4.148
233.51	4.662
233.72	4.496
233.93	4.455
234.15	4.353
234.36	4.142
234.57	4.148
234.79	4.311
235.00	4.469
235.21	4.633
235.43	4.630
235.64	4.623
235.86	4.338
236.07	4.216
236.28	3.999
236.50	4.079
236.71	4.500
236.92	4.631
237.14	4.490
237.35	4.656
237.56	4.628
237.78	4.544
237.99	4.705
238.20	4.932
238.42	5.469
238.63	5.662
238.84	5.896
239.06	5.557
239.27	5.366
239.48	5.350
239.70	4.968
239.91	4.739
240.13	4.624
240.34	4.759
240.55	4.606
240.77	4.458
240.98	4.450
241.19	4.360
241.41	4.212
241.62	4.125
241.83	4.006
242.05	4.019
242.26	4.098
242.47	4.108
242.69	4.034
242.90	4.081
243.11	4.091
243.33	4.024
243.54	3.981
243.75	4.108
243.97	4.184
244.18	4.435
244.39	4.646
244.61	4.479
244.82	4.612
245.03	4.655
245.24	4.598
245.46	4.541
245.67	4.582
245.88	4.557
246.10	4.522
246.31	4.464
246.52	4.311
246.74	4.264
246.95	4.293
247.16	4.300
247.38	4.289
247.59	4.294
247.80	4.311
248.02	4.325
248.23	4.279
248.44	4.277
248.66	4.284
248.87	4.382
249.08	4.445
249.29	4.557
249.51	4.592
249.72	4.753
249.93	4.858
250.15	4.875
250.36	4.807
250.57	4.849
250.79	4.960
251.00	5.049
251.21	5.058
251.42	4.916
251.64	4.751
251.85	4.827
252.06	4.784
252.28	4.698
252.49	4.627
252.70	4.623
252.91	4.629
253.13	4.522
253.34	4.477
253.55	4.420
253.77	4.558
253.98	4.874
254.19	4.750
254.40	4.667
254.62	4.849
254.83	4.831
255.04	4.896
255.26	5.053
255.47	5.008
255.68	4.962
255.89	5.044
256.11	5.042
256.32	4.725
256.53	4.846
256.75	4.761
256.96	4.662
257.17	4.798
257.38	4.845
257.60	4.797
257.81	4.757
258.02	4.783
258.23	4.543
258.45	4.409
258.66	4.394
258.87	4.186
259.09	4.160
259.30	4.123
259.51	4.075
259.72	4.053
259.94	4.051
260.15	4.067
260.36	4.104
260.57	4.152
260.79	4.167
261.00	4.147
261.21	4.256
261.42	4.347
261.64	4.405
261.85	4.452
262.06	4.547
262.27	4.631
262.49	4.747
262.70	4.654
262.91	4.651
263.12	4.701
263.34	4.770
263.55	4.618
263.76	4.496
263.97	4.636
264.19	4.813
264.40	4.672
264.61	4.705
264.82	4.455
265.04	4.474
265.25	4.455
265.46	4.335
265.67	4.289
265.88	4.364
266.10	4.293
266.31	4.171
266.52	4.024
266.73	4.114
266.95	4.039
267.16	4.098
267.37	4.012
267.58	3.943
267.80	4.046
268.01	4.042
268.22	3.980
268.43	4.082
268.64	4.074
268.86	4.105
269.07	4.022
269.28	4.022
269.49	4.078
269.71	4.223
269.92	4.153
270.13	4.092
270.34	4.132
270.55	4.196
270.77	4.263
270.98	4.234
271.19	4.261
271.40	4.198
271.61	4.153
271.83	4.091
272.04	3.940
272.25	4.085
272.46	4.092
272.68	4.083
272.89	4.047
273.10	3.961
273.31	3.991
273.52	3.980
273.74	3.991
273.95	4.022
274.16	4.095
274.37	4.101
274.58	4.067
274.80	4.016
275.01	4.034
275.22	4.043
275.43	4.145
275.64	4.169
275.86	4.183
276.07	4.128
276.28	4.223
276.49	4.197
276.70	4.222
276.91	4.286
277.13	4.197
277.34	4.142
277.55	4.173
277.76	4.076
277.97	4.059
278.19	4.031
278.40	4.171
278.61	4.055
278.82	3.994
279.03	4.051
279.24	4.010
279.46	4.126
279.67	4.114
279.88	4.069
280.09	4.130
280.30	4.154
280.52	4.232
280.73	4.186
280.94	4.223
281.15	4.209
281.36	4.239
281.57	4.320
281.79	4.336
282.00	4.440
282.21	4.425
282.42	4.425
282.63	4.486
282.84	4.436
283.06	4.388
283.27	4.348
283.48	4.358
283.69	4.269
283.90	4.207
284.11	4.164
284.32	4.043
284.54	4.070
284.75	3.964
284.96	3.861
285.17	3.951
285.38	4.007
285.59	4.002
285.81	4.094
286.02	4.224
286.23	4.197
286.44	4.263
286.65	4.400
286.86	4.409
287.07	4.498
287.29	4.480
287.50	4.458
287.71	4.451
287.92	4.510
288.13	4.495
288.34	4.481
288.55	4.537
288.77	4.555
288.98	4.476
289.19	4.505
289.40	4.549
289.61	4.726
289.82	4.689
290.03	4.706
290.24	4.757
290.46	4.855
290.67	4.931
290.88	5.000
291.09	5.028
291.30	5.120
291.51	5.172
291.72	5.289
291.93	5.322
292.15	5.359
292.36	5.565
292.57	5.619
292.78	5.608
292.99	5.507
293.20	5.601
293.41	5.603
293.62	5.644
293.84	5.778
294.05	5.757
294.26	5.755
294.47	5.900
294.68	5.899
294.89	6.025
295.10	5.993
295.31	6.094
295.52	6.081
295.73	6.074
295.95	6.075
296.16	6.067
296.37	6.171
296.58	6.229
296.79	6.232
297.00	6.245
297.21	6.222
297.42	6.235
297.63	6.272
297.84	6.281
298.06	6.322
298.27	6.373
298.48	6.457
298.69	6.341
298.90	6.394
299.11	6.470
299.32	6.529
299.53	6.603
299.74	6.713
299.95	6.784
300.16	6.789
300.38	6.837
300.59	6.852
300.80	6.830
301.01	6.994
301.22	6.947
301.43	6.874
301.64	6.863
301.85	6.820
302.06	6.868
302.27	6.837
302.48	6.983
302.69	7.038
302.91	7.083
303.12	7.140
303.33	7.140
303.54	7.228
303.75	7.273
303.96	7.377
304.17	7.450
304.38	7.466
304.59	7.531
304.80	7.504
305.01	7.514
305.22	7.579
305.43	7.583
305.64	7.639
305.85	7.606
306.06	7.694
306.28	7.695
306.49	7.733
306.70	7.719
306.91	7.735
307.12	7.736
307.33	7.751
307.54	7.787
307.75	7.863
307.96	7.886
308.17	7.958
308.38	7.951
308.59	7.981
308.80	7.995
309.01	8.161
309.22	8.211
309.43	8.241
309.64	8.361
309.85	8.416
310.06	8.426
310.27	8.492
310.48	8.579
310.70	8.626
310.91	8.680
311.12	8.722
311.33	8.668
311.54	8.694
311.75	8.720
311.96	8.723
312.17	8.762
312.38	8.846
312.59	8.871
312.80	8.901
313.01	8.986
313.22	9.058
313.43	9.181
313.64	9.288
313.85	9.329
314.06	9.487
314.27	9.623
314.48	9.768
314.69	9.828
314.90	9.961
315.11	9.970
315.32	10.068
315.53	10.143
315.74	10.089
315.95	10.127
316.16	10.227
316.37	10.174
316.58	10.253
316.79	10.219
317.00	10.318
317.21	10.267
317.42	10.308
317.63	10.291
317.84	10.278
318.05	10.335
318.26	10.321
318.47	10.310
318.68	10.485
318.89	10.510
319.10	10.555
319.31	10.551
319.52	10.738
319.73	10.874
319.94	10.970
320.15	11.054
320.36	11.242
320.57	11.352
320.78	11.455
320.99	11.427
321.20	11.469
321.41	11.542
321.62	11.545
321.83	11.512
322.04	11.628
322.25	11.672
322.46	11.735
322.67	11.712
322.88	11.760
323.09	11.819
323.30	11.888
323.51	11.906
323.72	11.977
323.93	12.019
324.14	12.167
324.35	12.189
324.56	12.302
324.77	12.328
324.98	12.348
325.19	12.430
325.40	12.542
325.61	12.638
325.82	12.711
326.03	12.744
326.24	12.805
326.45	12.839
326.65	12.798
326.86	12.788
327.07	12.887
327.28	12.941
327.49	13.001
327.70	12.952
327.91	13.016
328.12	13.034
328.33	13.035
328.54	13.181
328.75	13.198
328.96	13.308
329.17	13.366
329.38	13.360
329.59	13.434
329.80	13.480
330.01	13.607
330.22	13.654
330.43	13.738
330.64	13.857
330.85	13.920
331.05	13.918
331.26	13.968
331.47	14.024
331.68	14.107
331.89	14.214
332.10	14.229
332.31	14.299
332.52	14.348
332.73	14.397
332.94	14.450
333.15	14.407
333.36	14.545
333.57	14.590
333.78	14.658
333.99	14.726
334.19	14.787
334.40	14.884
334.61	14.994
334.82	15.077
335.03	15.104
335.24	15.180
335.45	15.272
335.66	15.328
335.87	15.403
336.08	15.477
336.29	15.532
336.50	15.549
336.71	15.632
336.91	15.649
337.12	15.628
337.33	15.743
337.54	15.807
337.75	15.868
337.96	15.900
338.17	15.971
338.38	16.003
338.59	16.065
338.80	16.041
339.01	16.087
339.21	16.089
339.42	16.187
339.63	16.210
339.84	16.297
340.05	16.406
340.26	16.369
340.47	16.420
340.68	16.491
340.89	16.493
341.10	16.549
341.30	16.595
341.51	16.640
341.72	16.724
341.93	16.792
342.14	16.748
342.35	16.745
342.56	16.881
342.77	16.887
342.98	16.886
343.18	16.937
343.39	17.037
343.60	17.062
343.81	17.123
344.02	17.149
344.23	17.211
344.44	17.256
344.65	17.315
344.85	17.310
345.06	17.382
345.27	17.420
345.48	17.498
345.69	17.600
345.90	17.681
346.11	17.709
346.32	17.767
346.52	17.754
346.73	17.784
346.94	17.783
347.15	17.896
347.36	17.923
347.57	18.028
347.78	18.063
347.98	18.074
348.19	18.084
348.40	18.184
348.61	18.209
348.82	18.287
349.03	18.409
349.24	18.569
349.44	18.560
349.65	18.612
349.86	18.655
350.07	18.771
350.28	18.808
350.49	18.887
350.70	18.845
350.90	18.873
351.11	18.916
351.32	18.942
351.53	18.925
351.74	18.953
351.95	18.967
352.15	18.999
352.36	18.937
352.57	18.973
352.78	19.024
352.99	19.106
353.20	19.204
353.40	19.285
353.61	19.319
353.82	19.374
354.03	19.480
354.24	19.558
354.45	19.650
354.65	19.788
354.86	19.826
355.07	19.827
355.28	19.952
355.49	19.987
355.70	20.007
355.90	20.036
356.11	20.042
356.32	20.098
356.53	20.147
356.74	20.165
356.94	20.181
357.15	20.267
357.36	20.337
357.57	20.365
357.78	20.391
357.99	20.408
358.19	20.462
358.40	20.556
358.61	20.604
358.82	20.708
359.03	20.770
359.23	20.876
359.44	20.945
359.65	20.979
359.86	21.076
360.07	21.184
360.27	21.262
360.48	21.351
360.69	21.422
360.90	21.480
361.11	21.555
361.31	21.606
361.52	21.632
361.73	21.664
361.94	21.765
362.15	21.736
362.35	21.712
362.56	21.777
362.77	21.786
362.98	21.795
363.18	21.787
363.39	21.756
363.60	21.798
363.81	21.799
364.02	21.858
364.22	21.877
364.43	21.915
364.64	21.964
364.85	21.958
365.05	22.024
365.26	22.054
365.47	22.185
365.68	22.254
365.89	22.267
366.09	22.352
366.30	22.383
366.51	22.430
366.72	22.450
366.92	22.520
367.13	22.626
367.34	22.663
367.55	22.689
367.75	22.695
367.96	22.721
368.17	22.794
368.38	22.822
368.58	22.818
368.79	22.855
369.00	22.945
369.21	22.999
369.41	23.002
369.62	23.024
369.83	23.061
370.04	23.088
370.24	23.166
370.45	23.191
370.66	23.227
370.87	23.282
371.07	23.315
371.28	23.370
371.49	23.406
371.70	23.455
371.90	23.543
372.11	23.629
372.32	23.696
372.53	23.745
372.73	23.808
372.94	23.823
373.15	23.903
373.36	23.954
373.56	24.019
373.77	24.049
373.98	24.115
374.19	24.129
374.39	24.174
374.60	24.216
374.81	24.225
375.01	24.307
375.22	24.358
375.43	24.422
375.64	24.432
375.84	24.470
376.05	24.541
376.26	24.591
376.46	24.641
376.67	24.704
376.88	24.714
377.09	24.768
377.29	24.778
377.50	24.867
377.71	24.882
377.91	24.988
378.12	25.027
378.33	25.076
378.54	25.102
378.74	25.131
378.95	25.123
379.16	25.234
379.36	25.281
379.57	25.324
379.78	25.334
379.99	25.369
380.19	25.324
380.40	25.354
380.61	25.387
380.81	25.432
381.02	25.480
381.23	25.546
381.43	25.563
381.64	25.606
381.85	25.620
382.05	25.677
382.26	25.753
382.47	25.873
382.67	25.896
382.88	25.921
383.09	26.014
383.30	26.084
383.50	26.161
383.71	26.192
383.92	26.233
384.12	26.306
384.33	26.326
384.54	26.368
384.74	26.407
384.95	26.493
385.16	26.556
385.36	26.566
385.57	26.624
385.78	26.654
385.98	26.734
386.19	26.798
386.40	26.858
386.60	26.954
386.81	26.984
387.02	27.058
387.22	27.067
387.43	27.121
387.64	27.168
387.84	27.158
388.05	27.239
388.26	27.251
388.46	27.267
388.67	27.329
388.88	27.332
389.08	27.383
389.29	27.396
389.49	27.469
389.70	27.493
389.91	27.519
390.11	27.600
390.32	27.612
390.53	27.670
390.73	27.779
390.94	27.853
391.15	27.949
391.35	27.979
391.56	28.092
391.77	28.138
391.97	28.228
392.18	28.300
392.38	28.352
392.59	28.440
392.80	28.492
393.00	28.480
393.21	28.478
393.42	28.502
393.62	28.630
393.83	28.646
394.04	28.678
394.24	28.682
394.45	28.717
394.65	28.755
394.86	28.777
395.07	28.858
395.27	28.889
395.48	28.945
395.68	28.980
395.89	28.953
396.10	29.014
396.30	29.085
396.51	29.147
396.72	29.204
396.92	29.230
397.13	29.278
397.33	29.293
397.54	29.366
397.75	29.440
397.95	29.489
398.16	29.545
398.36	29.556
398.57	29.605
398.78	29.673
398.98	29.731
399.19	29.821
399.39	29.873
399.60	29.920
399.81	29.976
400.01	30.016
400.22	30.110
400.42	30.209
400.63	30.267
400.84	30.316
401.04	30.367
401.25	30.406
401.45	30.488
401.66	30.517
401.86	30.566
402.07	30.621
402.28	30.691
402.48	30.689
402.69	30.731
402.89	30.787
403.10	30.825
403.31	30.835
403.51	30.878
403.72	30.928
403.92	31.011
404.13	31.073
404.33	31.118
404.54	31.137
404.75	31.219
404.95	31.267
405.16	31.312
405.36	31.376
405.57	31.459
405.77	31.516
405.98	31.531
406.18	31.528
406.39	31.542
406.60	31.576
406.80	31.582
407.01	31.626
407.21	31.626
407.42	31.682
407.62	31.672
407.83	31.674
408.03	31.688
408.24	31.722
408.45	31.776
408.65	31.871
408.86	31.915
409.06	31.990
409.27	32.036
409.47	32.103
409.68	32.127
409.88	32.236
410.09	32.300
410.29	32.366
410.50	32.413
410.71	32.475
410.91	32.488
411.12	32.533
411.32	32.591
411.53	32.616
411.73	32.667
411.94	32.671
412.14	32.691
412.35	32.715
412.55	32.754
412.76	32.768
412.96	32.834
413.17	32.881
413.37	32.927
413.58	32.963
413.78	33.018
413.99	33.044
414.19	33.171
414.40	33.231
414.61	33.294
414.81	33.353
415.02	33.404
415.22	33.412
415.43	33.493
415.63	33.550
415.84	33.617
416.04	33.685
416.25	33.755
416.45	33.771
416.66	33.823
416.86	33.886
417.07	33.908
417.27	33.963
417.48	34.008
417.68	34.032
417.89	34.083
418.09	34.146
418.30	34.163
418.50	34.190
418.71	34.237
418.91	34.309
419.12	34.360
419.32	34.438
419.53	34.523
419.73	34.614
419.94	34.668
420.14	34.691
420.34	34.696
420.55	34.719
420.75	34.741
420.96	34.768
421.16	34.772
421.37	34.799
421.57	34.841
421.78	34.860
421.98	34.883
422.19	34.910
422.39	34.976
422.60	35.063
422.80	35.130
423.01	35.178
423.21	35.217
423.42	35.232
423.62	35.249
423.83	35.240
424.03	35.223
424.23	35.224
424.44	35.243
424.64	35.268
424.85	35.269
425.05	35.302
425.26	35.364
425.46	35.419
425.67	35.491
425.87	35.546
426.08	35.617
426.28	35.692
426.48	35.774
426.69	35.826
426.89	35.869
427.10	35.924
427.30	35.983
427.51	36.005
427.71	36.028
427.92	35.985
428.12	36.023
428.32	36.028
428.53	36.078
428.73	36.084
428.94	36.107
429.14	36.133
429.35	36.157
429.55	36.172
429.76	36.194
429.96	36.215
430.16	36.284
430.37	36.287
430.57	36.325
430.78	36.359
430.98	36.419
431.19	36.465
431.39	36.481
431.59	36.489
431.80	36.504
432.00	36.502
432.21	36.505
432.41	36.503
432.61	36.512
432.82	36.536
433.02	36.552
433.23	36.557
433.43	36.590
433.64	36.625
433.84	36.673
434.04	36.723
434.25	36.807
434.45	36.870
434.66	36.972
434.86	37.048
435.06	37.101
435.27	37.145
435.47	37.204
435.68	37.238
435.88	37.284
436.08	37.286
436.29	37.286
436.49	37.272
436.70	37.302
436.90	37.293
437.10	37.363
437.31	37.417
437.51	37.450
437.71	37.469
437.92	37.479
438.12	37.500
438.33	37.553
438.53	37.583
438.73	37.604
438.94	37.609
439.14	37.669
439.35	37.672
439.55	37.693
439.75	37.727
439.96	37.771
440.16	37.831
440.36	37.857
440.57	37.858
440.77	37.901
440.97	37.955
441.18	38.032
441.38	38.052
441.59	38.103
441.79	38.157
441.99	38.206
442.20	38.231
442.40	38.253
442.60	38.295
442.81	38.391
443.01	38.426
443.21	38.436
443.42	38.431
443.62	38.476
443.83	38.465
444.03	38.453
444.23	38.456
444.44	38.476
444.64	38.485
444.84	38.497
445.05	38.486
445.25	38.479
445.45	38.503
445.66	38.496
445.86	38.470
446.06	38.491
446.27	38.515
446.47	38.549
446.67	38.565
446.88	38.609
447.08	38.645
447.28	38.694
447.49	38.759
447.69	38.794
447.89	38.862
448.10	38.934
448.30	38.996
448.50	39.025
448.71	39.042
448.91	39.057
449.11	39.026
449.32	39.032
449.52	39.041
449.72	39.050
449.93	39.066
450.13	39.110
450.33	39.157
450.53	39.130
450.74	39.136
450.94	39.173
451.14	39.208
451.35	39.260
451.55	39.283
451.75	39.278
451.96	39.267
452.16	39.274
452.36	39.272
452.57	39.280
452.77	39.305
452.97	39.348
453.17	39.363
453.38	39.413
453.58	39.422
453.78	39.421
453.99	39.438
454.19	39.500
454.39	39.545
454.59	39.582
454.80	39.579
455.00	39.637
455.20	39.651
455.41	39.667
455.61	39.668
455.81	39.743
456.01	39.791
456.22	39.847
456.42	39.832
456.62	39.877
456.83	39.883
457.03	39.914
457.23	39.904
457.43	39.948
457.64	39.980
457.84	39.982
458.04	40.019
458.25	40.069
458.45	40.146
458.65	40.177
458.85	40.165
459.06	40.141
459.26	40.137
459.46	40.128
459.66	40.107
459.87	40.098
460.07	40.120
460.27	40.107
460.47	40.092
460.68	40.076
460.88	40.053
461.08	40.094
461.28	40.147
461.49	40.170
461.69	40.227
461.89	40.270
462.09	40.307
462.30	40.332
462.50	40.345
462.70	40.379
462.90	40.372
463.11	40.443
463.31	40.438
463.51	40.456
463.71	40.504
463.92	40.549
464.12	40.577
464.32	40.612
464.52	40.632
464.72	40.665
464.93	40.679
465.13	40.714
465.33	40.734
465.53	40.728
465.74	40.722
465.94	40.685
466.14	40.649
466.34	40.630
466.54	40.591
466.75	40.575
466.95	40.545
467.15	40.534
467.35	40.501
467.56	40.503
467.76	40.543
467.96	40.579
468.16	40.637
468.36	40.672
468.57	40.737
468.77	40.792
468.97	40.816
469.17	40.865
469.37	40.922
469.58	40.981
469.78	41.010
469.98	41.028
470.18	41.063
470.38	41.072
470.59	41.106
470.79	41.139
470.99	41.190
471.19	41.242
471.39	41.298
471.60	41.311
471.80	41.329
472.00	41.345
472.20	41.342
472.40	41.333
472.61	41.333
472.81	41.328
473.01	41.311
473.21	41.319
473.41	41.332
473.61	41.301
473.82	41.325
474.02	41.348
474.22	41.386
474.42	41.421
474.62	41.463
474.82	41.558
475.03	41.649
475.23	41.683
475.43	41.733
475.63	41.781
475.83	41.834
