OOIBase32 Version 2.0.6.5 Data File
++++++++++++++++++++++++++++++++++++
Date: 11-17-2016, 11:08:24
User: Valued Ocean Optics Customer
Spectrometer Serial Number: USB4C01507
Spectrometer Channel: Master
Integration Time (msec): 49
Spectra Averaged: 25
Boxcar Smoothing: 5
Correct for Electrical Dark: Enabled
Time Normalized: Disabled
Dual-beam Reference: Disabled
Reference Channel: Master
Temperature: Not acquired
Spectrometer Type: S4000
ADC Type: USB4000
Number of Pixels in File: 3648
Graph Title: 
>>>>>Begin Spectral Data<<<<<
178.53	1534.690
178.74	2243.739
178.96	81.337
179.18	0.871
179.39	425.977
179.61	-71.925
179.82	-22.689
180.04	75.195
180.25	132.844
180.47	-201.449
180.69	21.018
180.90	1310.611
181.12	-155.867
181.33	-31.281
181.55	1.560
181.76	-8460.592
181.98	86.610
182.20	284.669
182.41	31.954
182.63	55.957
182.84	19.406
183.06	6.056
183.27	7.517
183.49	2.514
183.71	-5.621
183.92	-8.350
184.14	-12.343
184.35	-4.857
184.57	-23.714
184.78	-9.234
185.00	8.103
185.21	4.709
185.43	22.608
185.65	23.257
185.86	10.777
186.08	14.382
186.29	17.211
186.51	19.170
186.72	8.838
186.94	7.545
187.15	-0.677
187.37	-9.017
187.58	-6.924
187.80	-9.155
188.02	-5.299
188.23	8.628
188.45	7.034
188.66	9.115
188.88	9.571
189.09	10.379
189.31	20.063
189.52	23.285
189.74	24.529
189.95	30.134
190.17	23.347
190.38	22.139
190.60	22.335
190.82	29.739
191.03	27.053
191.25	28.236
191.46	37.205
191.68	25.697
191.89	14.660
192.11	16.408
192.32	7.689
192.54	10.810
192.75	16.559
192.97	14.681
193.18	11.910
193.40	8.117
193.61	6.950
193.83	6.480
194.04	5.281
194.26	16.460
194.48	12.901
194.69	18.723
194.91	11.686
195.12	10.266
195.34	14.967
195.55	18.044
195.77	17.510
195.98	14.202
196.20	16.107
196.41	9.808
196.63	8.578
196.84	11.129
197.06	9.376
197.27	17.850
197.49	13.408
197.70	11.174
197.92	-0.584
198.13	1.858
198.35	2.775
198.56	0.021
198.78	8.545
198.99	10.098
199.21	2.848
199.42	0.736
199.64	1.204
199.85	3.865
200.07	5.640
200.28	12.242
200.50	5.494
200.71	9.625
200.93	10.616
201.14	14.185
201.36	13.014
201.57	17.755
201.79	16.808
202.00	14.987
202.22	14.139
202.43	14.501
202.65	10.705
202.86	16.419
203.08	12.543
203.29	11.383
203.51	6.750
203.72	7.348
203.94	8.729
204.15	9.186
204.37	8.491
204.58	9.768
204.80	11.471
205.01	10.272
205.22	9.909
205.44	11.526
205.65	7.971
205.87	10.328
206.08	9.848
206.30	9.373
206.51	7.659
206.73	9.194
206.94	4.985
207.16	3.162
207.37	6.622
207.59	4.030
207.80	1.897
208.02	6.784
208.23	8.635
208.45	8.761
208.66	4.820
208.88	8.662
209.09	7.221
209.30	9.701
209.52	9.162
209.73	9.991
209.95	14.203
210.16	11.686
210.38	12.397
210.59	11.320
210.81	9.298
211.02	13.342
211.24	10.528
211.45	7.330
211.66	10.462
211.88	9.849
212.09	9.276
212.31	10.133
212.52	11.515
212.74	7.481
212.95	4.007
213.17	4.270
213.38	4.918
213.60	8.050
213.81	11.643
214.02	10.754
214.24	10.467
214.45	5.531
214.67	4.443
214.88	4.417
215.10	6.565
215.31	10.061
215.53	10.376
215.74	7.514
215.95	7.404
216.17	7.391
216.38	4.514
216.60	3.824
216.81	9.880
217.03	8.780
217.24	9.553
217.45	10.018
217.67	9.122
217.88	8.529
218.10	8.904
218.31	7.555
218.53	6.597
218.74	6.930
218.95	4.245
219.17	-0.327
219.38	0.818
219.60	2.689
219.81	1.772
220.03	2.590
220.24	3.065
220.45	3.351
220.67	4.230
220.88	4.573
221.10	3.819
221.31	5.112
221.53	4.977
221.74	3.272
221.95	1.672
222.17	1.184
222.38	-0.570
222.60	-0.641
222.81	-1.561
223.02	-1.605
223.24	-1.939
223.45	0.052
223.67	-0.615
223.88	0.099
224.09	0.965
224.31	1.941
224.52	2.819
224.74	3.427
224.95	3.863
225.16	4.688
225.38	3.911
225.59	4.011
225.81	3.127
226.02	3.693
226.23	3.532
226.45	3.566
226.66	3.590
226.88	3.896
227.09	4.448
227.30	4.475
227.52	4.494
227.73	4.343
227.95	4.270
228.16	4.312
228.37	4.233
228.59	4.410
228.80	4.345
229.02	4.317
229.23	4.282
229.44	4.192
229.66	4.104
229.87	4.112
230.08	4.187
230.30	4.262
230.51	4.370
230.73	4.509
230.94	4.338
231.15	4.418
231.37	4.349
231.58	4.311
231.80	4.349
232.01	4.402
232.22	4.243
232.44	4.393
232.65	4.383
232.86	3.950
233.08	3.657
233.29	3.767
233.51	3.929
233.72	4.102
233.93	3.900
234.15	3.801
234.36	3.720
234.57	3.672
234.79	3.519
235.00	3.475
235.21	3.974
235.43	4.189
235.64	3.922
235.86	3.912
236.07	3.620
236.28	3.700
236.50	3.568
236.71	3.923
236.92	4.102
237.14	4.473
237.35	4.550
237.56	4.240
237.78	4.152
237.99	4.327
238.20	4.041
238.42	4.519
238.63	4.264
238.84	4.774
239.06	4.579
239.27	4.319
239.48	4.042
239.70	4.016
239.91	3.950
240.13	3.888
240.34	3.748
240.55	3.811
240.77	3.616
240.98	3.733
241.19	3.661
241.41	3.465
241.62	3.464
241.83	3.412
242.05	3.410
242.26	3.360
242.47	3.311
242.69	3.402
242.90	3.379
243.11	3.404
243.33	3.353
243.54	3.140
243.75	3.246
243.97	3.288
244.18	3.388
244.39	3.390
244.61	3.340
244.82	3.352
245.03	3.374
245.24	3.367
245.46	3.342
245.67	3.469
245.88	3.499
246.10	3.447
246.31	3.399
246.52	3.295
246.74	3.232
246.95	3.270
247.16	3.260
247.38	3.244
247.59	3.240
247.80	3.245
248.02	3.250
248.23	3.250
248.44	3.251
248.66	3.246
248.87	3.272
249.08	3.350
249.29	3.335
249.51	3.432
249.72	3.365
249.93	3.430
250.15	3.391
250.36	3.181
250.57	3.233
250.79	3.446
251.00	3.454
251.21	3.550
251.42	3.460
251.64	3.424
251.85	3.447
252.06	3.517
252.28	3.346
252.49	3.371
252.70	3.279
252.91	3.262
253.13	3.101
253.34	3.099
253.55	3.126
253.77	3.140
253.98	3.273
254.19	3.061
254.40	3.030
254.62	3.295
254.83	3.149
255.04	3.419
255.26	3.272
255.47	3.149
255.68	3.074
255.89	3.093
256.11	3.033
256.32	2.787
256.53	3.036
256.75	3.067
256.96	2.986
257.17	3.053
257.38	3.091
257.60	3.274
257.81	3.215
258.02	3.218
258.23	3.100
258.45	3.061
258.66	3.219
258.87	3.063
259.09	3.009
259.30	2.995
259.51	2.986
259.72	2.975
259.94	2.892
260.15	2.944
260.36	2.992
260.57	2.990
260.79	3.007
261.00	2.957
261.21	2.986
261.42	3.023
261.64	3.046
261.85	3.089
262.06	3.102
262.27	3.325
262.49	3.210
262.70	3.119
262.91	3.176
263.12	3.149
263.34	3.172
263.55	3.168
263.76	3.106
263.97	3.175
264.19	3.190
264.40	3.112
264.61	3.093
264.82	3.186
265.04	3.125
265.25	2.978
265.46	2.986
265.67	2.998
265.88	2.998
266.10	2.988
266.31	2.933
266.52	2.932
266.73	3.019
266.95	2.912
267.16	2.993
267.37	2.946
267.58	2.992
267.80	3.050
268.01	2.963
268.22	2.919
268.43	2.991
268.64	3.040
268.86	2.975
269.07	2.875
269.28	2.789
269.49	2.718
269.71	2.759
269.92	2.707
270.13	2.758
270.34	2.778
270.55	2.879
270.77	2.888
270.98	2.834
271.19	2.937
271.40	2.989
271.61	3.004
271.83	3.012
272.04	3.050
272.25	3.118
272.46	3.083
272.68	3.077
272.89	3.049
273.10	3.006
273.31	2.963
273.52	2.904
273.74	2.888
273.95	2.853
274.16	2.832
274.37	2.831
274.58	2.831
274.80	2.734
275.01	2.745
275.22	2.823
275.43	2.900
275.64	2.846
275.86	2.779
276.07	2.712
276.28	2.903
276.49	2.920
276.70	2.882
276.91	2.882
277.13	2.973
277.34	2.966
277.55	2.939
277.76	2.839
277.97	2.935
278.19	3.000
278.40	3.130
278.61	3.049
278.82	2.988
279.03	2.919
279.24	2.870
279.46	2.790
279.67	2.751
279.88	2.607
280.09	2.587
280.30	2.632
280.52	2.628
280.73	2.621
280.94	2.595
281.15	2.552
281.36	2.656
281.57	2.751
281.79	2.856
282.00	2.900
282.21	2.912
282.42	2.871
282.63	2.957
282.84	2.926
283.06	2.922
283.27	2.843
283.48	2.905
283.69	2.853
283.90	2.741
284.11	2.645
284.32	2.586
284.54	2.649
284.75	2.637
284.96	2.521
285.17	2.538
285.38	2.507
285.59	2.653
285.81	2.641
286.02	2.691
286.23	2.715
286.44	2.780
286.65	2.869
286.86	2.838
287.07	2.810
287.29	2.816
287.50	2.775
287.71	2.757
287.92	2.630
288.13	2.623
288.34	2.557
288.55	2.614
288.77	2.497
288.98	2.401
289.19	2.382
289.40	2.538
289.61	2.609
289.82	2.629
290.03	2.630
290.24	2.672
290.46	2.682
290.67	2.765
290.88	2.735
291.09	2.757
291.30	2.813
291.51	2.927
291.72	2.869
291.93	2.772
292.15	2.790
292.36	2.948
292.57	2.933
292.78	2.955
292.99	2.811
293.20	2.783
293.41	2.748
293.62	2.716
293.84	2.679
294.05	2.749
294.26	2.849
294.47	2.871
294.68	2.726
294.89	2.815
295.10	2.776
295.31	2.791
295.52	2.831
295.73	2.880
295.95	2.859
296.16	2.811
296.37	2.789
296.58	2.784
296.79	2.810
297.00	2.792
297.21	2.687
297.42	2.663
297.63	2.636
297.84	2.613
298.06	2.543
298.27	2.545
298.48	2.580
298.69	2.475
298.90	2.441
299.11	2.424
299.32	2.397
299.53	2.470
299.74	2.513
299.95	2.625
300.16	2.636
300.38	2.714
300.59	2.664
300.80	2.607
301.01	2.619
301.22	2.640
301.43	2.561
301.64	2.588
301.85	2.447
302.06	2.444
302.27	2.350
302.48	2.343
302.69	2.320
302.91	2.365
303.12	2.405
303.33	2.465
303.54	2.461
303.75	2.464
303.96	2.449
304.17	2.559
304.38	2.519
304.59	2.590
304.80	2.545
305.01	2.567
305.22	2.559
305.43	2.515
305.64	2.485
305.85	2.416
306.06	2.411
306.28	2.436
306.49	2.499
306.70	2.417
306.91	2.313
307.12	2.279
307.33	2.165
307.54	2.237
307.75	2.241
307.96	2.183
308.17	2.187
308.38	2.199
308.59	2.185
308.80	2.124
309.01	2.233
309.22	2.263
309.43	2.275
309.64	2.319
309.85	2.223
310.06	2.227
310.27	2.294
310.48	2.316
310.70	2.321
310.91	2.304
311.12	2.251
311.33	2.270
311.54	2.195
311.75	2.209
311.96	2.257
312.17	2.271
312.38	2.273
312.59	2.239
312.80	2.184
313.01	2.166
313.22	2.115
313.43	2.133
313.64	2.036
313.85	2.098
314.06	2.080
314.27	2.097
314.48	2.196
314.69	2.225
314.90	2.253
315.11	2.490
315.32	2.444
315.53	2.479
315.74	2.467
315.95	2.481
316.16	2.476
316.37	2.446
316.58	2.389
316.79	2.303
317.00	2.232
317.21	2.200
317.42	1.951
317.63	1.978
317.84	2.008
318.05	1.989
318.26	1.970
318.47	1.983
318.68	2.005
318.89	2.019
319.10	1.974
319.31	1.955
319.52	2.001
319.73	1.993
319.94	2.004
320.15	1.923
320.36	1.996
320.57	2.010
320.78	2.018
320.99	2.058
321.20	2.061
321.41	2.105
321.62	2.128
321.83	2.143
322.04	2.125
322.25	2.107
322.46	2.188
322.67	2.154
322.88	2.119
323.09	2.062
323.30	1.927
323.51	1.887
323.72	1.832
323.93	1.878
324.14	1.873
324.35	1.942
324.56	1.930
324.77	1.868
324.98	1.858
325.19	1.859
325.40	1.862
325.61	1.937
325.82	1.963
326.03	2.032
326.24	2.003
326.45	1.971
326.65	1.926
326.86	1.954
327.07	2.007
327.28	1.992
327.49	2.081
327.70	2.082
327.91	2.036
328.12	2.021
328.33	1.932
328.54	1.931
328.75	1.935
328.96	1.999
329.17	1.933
329.38	1.887
329.59	1.863
329.80	1.808
330.01	1.823
330.22	1.887
330.43	1.853
330.64	1.956
330.85	1.933
331.05	1.884
331.26	1.808
331.47	1.838
331.68	1.870
331.89	1.936
332.10	1.935
332.31	1.972
332.52	1.938
332.73	1.932
332.94	1.871
333.15	1.867
333.36	1.954
333.57	1.967
333.78	1.956
333.99	1.963
334.19	1.928
334.40	1.907
334.61	1.918
334.82	1.959
335.03	1.984
335.24	1.973
335.45	1.998
335.66	2.012
335.87	1.993
336.08	2.009
336.29	1.943
336.50	1.959
336.71	2.025
336.91	1.982
337.12	1.904
337.33	1.945
337.54	1.950
337.75	1.916
337.96	1.803
338.17	1.909
338.38	1.857
338.59	1.931
338.80	1.843
339.01	1.792
339.21	1.758
339.42	1.827
339.63	1.720
339.84	1.784
340.05	1.796
340.26	1.831
340.47	1.735
340.68	1.749
340.89	1.720
341.10	1.742
341.30	1.725
341.51	1.773
341.72	1.772
341.93	1.854
342.14	1.761
342.35	1.796
342.56	1.761
342.77	1.799
342.98	1.795
343.18	1.820
343.39	1.856
343.60	1.871
343.81	1.882
344.02	1.884
344.23	1.880
344.44	1.902
344.65	1.858
344.85	1.846
345.06	1.865
345.27	1.897
345.48	1.828
345.69	1.876
345.90	1.899
346.11	1.890
346.32	1.836
346.52	1.809
346.73	1.790
346.94	1.804
347.15	1.821
347.36	1.780
347.57	1.807
347.78	1.861
347.98	1.764
348.19	1.740
348.40	1.732
348.61	1.763
348.82	1.807
349.03	1.853
349.24	1.844
349.44	1.891
349.65	1.875
349.86	1.866
350.07	1.910
350.28	1.977
350.49	1.971
350.70	1.905
350.90	1.888
351.11	1.886
351.32	1.821
351.53	1.849
351.74	1.823
351.95	1.817
352.15	1.820
352.36	1.764
352.57	1.738
352.78	1.836
352.99	1.881
353.20	1.932
353.40	1.902
353.61	1.908
353.82	1.884
354.03	1.896
354.24	1.927
354.45	1.945
354.65	1.893
354.86	1.892
355.07	1.757
355.28	1.783
355.49	1.744
355.70	1.729
355.90	1.757
356.11	1.742
356.32	1.754
356.53	1.786
356.74	1.753
356.94	1.769
357.15	1.761
357.36	1.808
357.57	1.810
357.78	1.825
357.99	1.819
358.19	1.828
358.40	1.877
358.61	1.901
358.82	1.873
359.03	1.896
359.23	1.930
359.44	1.981
359.65	1.961
359.86	1.978
360.07	2.015
360.27	2.056
360.48	2.037
360.69	2.013
360.90	1.976
361.11	2.056
361.31	2.043
361.52	2.055
361.73	2.014
361.94	2.042
362.15	1.985
362.35	1.938
362.56	1.950
362.77	1.987
362.98	1.995
363.18	1.999
363.39	1.897
363.60	1.934
363.81	1.920
364.02	1.941
364.22	1.944
364.43	1.977
364.64	1.976
364.85	1.924
365.05	1.894
365.26	1.864
365.47	1.879
365.68	1.890
365.89	1.831
366.09	1.862
366.30	1.862
366.51	1.858
366.72	1.827
366.92	1.859
367.13	1.898
367.34	1.902
367.55	1.900
367.75	1.900
367.96	1.908
368.17	1.962
368.38	1.947
368.58	1.931
368.79	1.915
369.00	1.966
369.21	1.958
369.41	1.946
369.62	1.934
369.83	1.979
370.04	1.947
370.24	1.942
370.45	1.951
370.66	1.933
370.87	1.915
371.07	1.886
371.28	1.870
371.49	1.863
371.70	1.839
371.90	1.851
372.11	1.838
372.32	1.871
372.53	1.908
372.73	1.882
372.94	1.887
373.15	1.972
373.36	1.989
373.56	2.026
373.77	2.035
373.98	2.059
374.19	2.083
374.39	2.098
374.60	2.105
374.81	2.097
375.01	2.096
375.22	2.093
375.43	2.057
375.64	2.047
375.84	2.014
376.05	2.014
376.26	2.018
376.46	2.004
376.67	1.980
376.88	1.966
377.09	1.939
377.29	1.929
377.50	1.910
377.71	1.913
377.91	1.950
378.12	1.949
378.33	1.946
378.54	1.961
378.74	1.945
378.95	1.945
379.16	1.958
379.36	1.944
379.57	1.936
379.78	1.973
379.99	1.963
380.19	1.932
380.40	1.882
380.61	1.853
380.81	1.813
381.02	1.844
381.23	1.839
381.43	1.838
381.64	1.890
381.85	1.902
382.05	1.890
382.26	1.887
382.47	1.893
382.67	1.935
382.88	1.938
383.09	1.958
383.30	1.947
383.50	1.965
383.71	1.937
383.92	1.911
384.12	1.933
384.33	1.911
384.54	1.889
384.74	1.911
384.95	1.902
385.16	1.943
385.36	1.957
385.57	1.959
385.78	1.943
385.98	1.978
386.19	1.971
386.40	1.946
386.60	1.933
386.81	1.935
387.02	1.920
387.22	1.934
387.43	1.891
387.64	1.888
387.84	1.862
388.05	1.855
388.26	1.831
388.46	1.842
388.67	1.863
388.88	1.905
389.08	1.927
389.29	1.940
389.49	1.931
389.70	1.973
389.91	1.975
390.11	1.979
390.32	1.996
390.53	2.002
390.73	1.991
390.94	1.974
391.15	1.977
391.35	1.954
391.56	1.965
391.77	1.983
391.97	1.959
392.18	1.959
392.38	1.990
392.59	1.979
392.80	1.952
393.00	1.937
393.21	1.939
393.42	1.946
393.62	1.962
393.83	1.967
394.04	1.939
394.24	1.938
394.45	1.919
394.65	1.921
394.86	1.934
395.07	1.967
395.27	1.970
395.48	1.950
395.68	1.937
395.89	1.938
396.10	1.918
396.30	1.904
396.51	1.928
396.72	1.942
396.92	1.916
397.13	1.931
397.33	1.916
397.54	1.937
397.75	1.961
397.95	1.971
398.16	1.952
398.36	1.962
398.57	1.988
398.78	1.976
398.98	1.972
399.19	1.986
399.39	1.964
399.60	1.959
399.81	1.953
400.01	1.938
400.22	1.936
400.42	1.966
400.63	1.952
400.84	1.982
401.04	1.995
401.25	1.997
401.45	1.988
401.66	1.980
401.86	1.956
402.07	1.963
402.28	1.974
402.48	1.953
402.69	1.945
402.89	1.935
403.10	1.917
403.31	1.918
403.51	1.916
403.72	1.943
403.92	1.960
404.13	1.987
404.33	1.980
404.54	1.983
404.75	1.985
404.95	2.005
405.16	2.014
405.36	2.009
405.57	2.000
405.77	2.006
405.98	1.985
406.18	1.977
406.39	1.974
406.60	1.970
406.80	1.948
407.01	1.946
407.21	1.921
407.42	1.940
407.62	1.950
407.83	1.940
408.03	1.910
408.24	1.918
408.45	1.912
408.65	1.943
408.86	1.972
409.06	1.999
409.27	1.997
409.47	1.985
409.68	1.973
409.88	1.994
410.09	2.004
410.29	2.031
410.50	2.018
410.71	2.043
410.91	2.030
411.12	2.028
411.32	2.027
411.53	2.050
411.73	2.061
411.94	2.057
412.14	2.059
412.35	2.035
412.55	2.020
412.76	2.033
412.96	2.033
413.17	2.011
413.37	1.988
413.58	2.009
413.78	2.005
413.99	2.027
414.19	2.060
414.40	2.048
414.61	2.078
414.81	2.082
415.02	2.083
415.22	2.068
415.43	2.087
415.63	2.107
415.84	2.085
416.04	2.087
416.25	2.075
416.45	2.031
416.66	2.038
416.86	2.034
417.07	2.013
417.27	2.012
417.48	1.996
417.68	2.010
417.89	2.004
418.09	2.001
418.30	1.992
418.50	1.984
418.71	2.010
418.91	1.997
419.12	1.984
419.32	1.991
419.53	1.978
419.73	1.983
419.94	1.969
420.14	1.948
420.34	1.956
420.55	1.958
420.75	1.957
420.96	1.943
421.16	1.942
421.37	1.951
421.57	1.971
421.78	1.979
421.98	1.978
422.19	1.976
422.39	1.998
422.60	1.992
422.80	1.981
423.01	1.992
423.21	2.001
423.42	2.006
423.62	1.993
423.83	1.984
424.03	1.989
424.23	1.993
424.44	1.991
424.64	1.995
424.85	1.986
425.05	2.004
425.26	2.004
425.46	2.024
425.67	2.014
425.87	2.033
426.08	2.049
426.28	2.055
426.48	2.063
426.69	2.085
426.89	2.088
427.10	2.121
427.30	2.141
427.51	2.150
427.71	2.116
427.92	2.107
428.12	2.103
428.32	2.082
428.53	2.060
428.73	2.077
428.94	2.086
429.14	2.084
429.35	2.062
429.55	2.046
429.76	2.046
429.96	2.050
430.16	2.085
430.37	2.076
430.57	2.086
430.78	2.103
430.98	2.091
431.19	2.083
431.39	2.067
431.59	2.064
431.80	2.065
432.00	2.044
432.21	2.044
432.41	2.020
432.61	2.032
432.82	2.035
433.02	2.039
433.23	2.042
433.43	2.036
433.64	2.052
433.84	2.058
434.04	2.052
434.25	2.078
434.45	2.093
434.66	2.107
434.86	2.121
435.06	2.118
435.27	2.112
435.47	2.105
435.68	2.097
435.88	2.099
436.08	2.105
436.29	2.107
436.49	2.103
436.70	2.072
436.90	2.073
437.10	2.075
437.31	2.066
437.51	2.076
437.71	2.091
437.92	2.084
438.12	2.082
438.33	2.078
438.53	2.076
438.73	2.065
438.94	2.086
439.14	2.087
439.35	2.079
439.55	2.094
439.75	2.085
439.96	2.081
440.16	2.092
440.36	2.085
440.57	2.090
440.77	2.103
440.97	2.105
441.18	2.110
441.38	2.114
441.59	2.118
441.79	2.113
441.99	2.117
442.20	2.104
442.40	2.098
442.60	2.111
442.81	2.103
443.01	2.097
443.21	2.091
443.42	2.072
443.62	2.080
443.83	2.074
444.03	2.072
444.23	2.083
444.44	2.095
444.64	2.096
444.84	2.087
445.05	2.088
445.25	2.076
445.45	2.087
445.66	2.097
445.86	2.096
446.06	2.091
446.27	2.102
446.47	2.090
446.67	2.102
446.88	2.103
447.08	2.110
447.28	2.120
447.49	2.131
447.69	2.129
447.89	2.131
448.10	2.130
448.30	2.151
448.50	2.130
448.71	2.142
448.91	2.129
449.11	2.148
449.32	2.160
449.52	2.168
449.72	2.164
449.93	2.172
450.13	2.174
450.33	2.177
450.53	2.156
450.74	2.173
450.94	2.162
451.14	2.169
451.35	2.166
451.55	2.151
451.75	2.134
451.96	2.132
452.16	2.120
452.36	2.121
452.57	2.138
452.77	2.161
452.97	2.159
453.17	2.173
453.38	2.178
453.58	2.163
453.78	2.157
453.99	2.158
454.19	2.182
454.39	2.192
454.59	2.188
454.80	2.166
455.00	2.160
455.20	2.169
455.41	2.152
455.61	2.147
455.81	2.172
456.01	2.180
456.22	2.202
456.42	2.195
456.62	2.209
456.83	2.226
457.03	2.232
457.23	2.225
457.43	2.216
457.64	2.247
457.84	2.225
458.04	2.200
458.25	2.199
458.45	2.190
458.65	2.175
458.85	2.170
459.06	2.148
459.26	2.137
459.46	2.130
459.66	2.129
459.87	2.123
460.07	2.136
460.27	2.141
460.47	2.141
460.68	2.157
460.88	2.164
461.08	2.160
461.28	2.174
461.49	2.178
461.69	2.185
461.89	2.200
462.09	2.198
462.30	2.206
462.50	2.209
462.70	2.226
462.90	2.198
463.11	2.206
463.31	2.207
463.51	2.203
463.71	2.221
463.92	2.233
464.12	2.206
464.32	2.220
464.52	2.205
464.72	2.209
464.93	2.180
465.13	2.191
465.33	2.185
465.53	2.176
465.74	2.189
465.94	2.179
466.14	2.168
466.34	2.171
466.54	2.154
466.75	2.157
466.95	2.150
467.15	2.166
467.35	2.156
467.56	2.154
467.76	2.168
467.96	2.165
468.16	2.165
468.36	2.168
468.57	2.186
468.77	2.200
468.97	2.192
469.17	2.197
469.37	2.197
469.58	2.195
469.78	2.211
469.98	2.204
470.18	2.200
470.38	2.195
470.59	2.202
470.79	2.197
470.99	2.195
471.19	2.200
471.39	2.200
471.60	2.199
471.80	2.206
472.00	2.200
472.20	2.210
472.40	2.202
472.61	2.213
472.81	2.214
473.01	2.214
473.21	2.213
473.41	2.213
473.61	2.223
473.82	2.250
474.02	2.246
474.22	2.248
474.42	2.243
474.62	2.251
474.82	2.256
475.03	2.262
475.23	2.258
475.43	2.277
475.63	2.280
475.83	2.274
476.03	2.250
476.24	2.249
476.44	2.256
476.64	2.259
476.84	2.266
477.04	2.262
477.24	2.263
477.45	2.266
477.65	2.255
477.85	2.263
478.05	2.262
478.25	2.266
478.45	2.280
478.65	2.277
478.86	2.281
479.06	2.267
479.26	2.280
479.46	2.272
479.66	2.276
479.86	2.270
480.06	2.266
480.27	2.256
480.47	2.245
480.67	2.232
480.87	2.223
481.07	2.220
481.27	2.239
481.47	2.242
481.68	2.249
481.88	2.258
482.08	2.262
482.28	2.273
482.48	2.288
482.68	2.288
482.88	2.285
483.08	2.297
483.29	2.303
483.49	2.290
483.69	2.274
483.89	2.267
484.09	2.266
484.29	2.267
484.49	2.269
484.69	2.267
484.89	2.275
485.10	2.282
485.30	2.278
485.50	2.276
485.70	2.291
485.90	2.311
486.10	2.326
486.30	2.332
486.50	2.328
486.70	2.319
486.90	2.312
487.11	2.302
487.31	2.295
487.51	2.289
487.71	2.283
487.91	2.285
488.11	2.283
488.31	2.292
488.51	2.288
488.71	2.294
488.91	2.303
