OOIBase32 Version 2.0.6.5 Data File
++++++++++++++++++++++++++++++++++++
Date: 11-17-2016, 11:08:53
User: Valued Ocean Optics Customer
Spectrometer Serial Number: USB4C01507
Spectrometer Channel: Master
Integration Time (msec): 49
Spectra Averaged: 25
Boxcar Smoothing: 5
Correct for Electrical Dark: Enabled
Time Normalized: Disabled
Dual-beam Reference: Disabled
Reference Channel: Master
Temperature: Not acquired
Spectrometer Type: S4000
ADC Type: USB4000
Number of Pixels in File: 3648
Graph Title: 
>>>>>Begin Spectral Data<<<<<
178.53	1617.319
178.74	2239.193
178.96	141.720
179.18	43.785
179.39	196.781
179.61	33.531
179.82	82.268
180.04	105.727
180.25	74.936
180.47	-185.477
180.69	65.573
180.90	-199.774
181.12	-268.694
181.33	-114.836
181.55	3.598
181.76	-3987.142
181.98	115.087
182.20	322.916
182.41	5.476
182.63	161.874
182.84	50.904
183.06	44.710
183.27	43.482
183.49	39.911
183.71	55.796
183.92	51.029
184.14	45.514
184.35	55.396
184.57	52.095
184.78	39.881
185.00	36.078
185.21	34.632
185.43	45.298
185.65	51.120
185.86	54.821
186.08	46.643
186.29	46.551
186.51	47.327
186.72	37.219
186.94	41.690
187.15	50.583
187.37	54.380
187.58	63.237
187.80	60.314
188.02	56.358
188.23	55.826
188.45	57.148
188.66	68.733
188.88	73.482
189.09	72.595
189.31	73.545
189.52	65.394
189.74	59.084
189.95	58.385
190.17	55.586
190.38	57.316
190.60	51.120
190.82	53.404
191.03	42.666
191.25	39.925
191.46	35.698
191.68	29.830
191.89	35.698
192.11	39.588
192.32	33.712
192.54	37.436
192.75	32.792
192.97	33.918
193.18	31.462
193.40	31.416
193.61	29.265
193.83	36.810
194.04	32.736
194.26	39.336
194.48	35.825
194.69	41.086
194.91	34.232
195.12	33.647
195.34	32.876
195.55	33.409
195.77	31.534
195.98	33.767
196.20	25.338
196.41	22.806
196.63	10.557
196.84	15.009
197.06	15.974
197.27	21.407
197.49	23.294
197.70	20.086
197.92	15.767
198.13	19.200
198.35	3.756
198.56	0.486
198.78	0.068
198.99	8.228
199.21	7.647
199.42	6.175
199.64	7.598
199.85	8.821
200.07	16.111
200.28	15.745
200.50	11.347
200.71	24.392
200.93	32.023
201.14	38.562
201.36	35.456
201.57	38.769
201.79	38.014
202.00	34.066
202.22	39.130
202.43	38.295
202.65	39.500
202.86	38.860
203.08	37.792
203.29	31.582
203.51	31.359
203.72	31.106
203.94	31.917
204.15	32.161
204.37	34.898
204.58	30.426
204.80	30.183
205.01	31.634
205.22	32.204
205.44	32.096
205.65	30.180
205.87	26.830
206.08	29.470
206.30	25.343
206.51	22.902
206.73	20.046
206.94	19.759
207.16	16.434
207.37	12.624
207.59	16.568
207.80	16.973
208.02	24.430
208.23	26.867
208.45	24.630
208.66	24.636
208.88	28.013
209.09	31.553
209.30	32.417
209.52	32.041
209.73	38.046
209.95	38.021
210.16	36.200
210.38	33.435
210.59	29.663
210.81	28.537
211.02	28.414
211.24	25.964
211.45	23.498
211.66	21.103
211.88	22.575
212.09	21.746
212.31	19.973
212.52	21.527
212.74	18.478
212.95	18.558
213.17	18.451
213.38	19.222
213.60	19.457
213.81	19.552
214.02	22.272
214.24	21.821
214.45	15.149
214.67	15.459
214.88	13.119
215.10	14.254
215.31	14.776
215.53	14.726
215.74	13.703
215.95	16.243
216.17	15.673
216.38	15.147
216.60	15.041
216.81	17.790
217.03	18.296
217.24	19.242
217.45	19.574
217.67	19.790
217.88	19.457
218.10	20.546
218.31	18.725
218.53	18.258
218.74	17.392
218.95	13.145
219.17	11.581
219.38	9.923
219.60	10.963
219.81	11.502
220.03	11.932
220.24	11.320
220.45	8.753
220.67	7.617
220.88	8.565
221.10	7.991
221.31	9.721
221.53	10.567
221.74	9.645
221.95	8.623
222.17	7.156
222.38	6.698
222.60	6.504
222.81	5.939
223.02	6.755
223.24	6.256
223.45	7.108
223.67	6.262
223.88	5.577
224.09	5.885
224.31	6.503
224.52	8.567
224.74	7.584
224.95	7.882
225.16	8.500
225.38	7.827
225.59	7.236
225.81	6.287
226.02	6.662
226.23	6.416
226.45	6.297
226.66	5.652
226.88	4.708
227.09	5.203
227.30	4.874
227.52	4.900
227.73	4.620
227.95	4.588
228.16	4.639
228.37	4.553
228.59	4.555
228.80	4.546
229.02	4.531
229.23	4.500
229.44	4.516
229.66	4.504
229.87	4.510
230.08	4.557
230.30	4.642
230.51	4.670
230.73	4.820
230.94	4.914
231.15	4.936
231.37	4.924
231.58	5.039
231.80	4.908
232.01	4.947
232.22	4.963
232.44	5.125
232.65	5.089
232.86	4.762
233.08	4.575
233.29	4.540
233.51	4.506
233.72	4.522
233.93	4.662
234.15	4.512
234.36	4.567
234.57	4.420
234.79	4.634
235.00	4.776
235.21	5.189
235.43	5.324
235.64	5.127
235.86	5.082
236.07	5.132
236.28	4.998
236.50	5.103
236.71	5.495
236.92	5.419
237.14	5.457
237.35	5.264
237.56	5.177
237.78	5.060
237.99	5.126
238.20	5.255
238.42	5.558
238.63	5.494
238.84	5.798
239.06	5.309
239.27	5.391
239.48	5.246
239.70	5.307
239.91	5.010
240.13	4.882
240.34	4.855
240.55	4.784
240.77	4.663
240.98	4.703
241.19	4.535
241.41	4.502
241.62	4.367
241.83	4.297
242.05	4.296
242.26	4.332
242.47	4.374
242.69	4.441
242.90	4.428
243.11	4.425
243.33	4.404
243.54	4.432
243.75	4.610
243.97	4.714
244.18	4.826
244.39	4.924
244.61	4.907
244.82	4.977
245.03	4.833
245.24	4.825
245.46	4.745
245.67	4.751
245.88	4.711
246.10	4.547
246.31	4.501
246.52	4.383
246.74	4.323
246.95	4.340
247.16	4.308
247.38	4.293
247.59	4.338
247.80	4.351
248.02	4.315
248.23	4.318
248.44	4.383
248.66	4.407
248.87	4.540
249.08	4.623
249.29	4.723
249.51	4.913
249.72	5.123
249.93	5.172
250.15	5.333
250.36	5.363
250.57	5.128
250.79	5.215
251.00	5.187
251.21	5.138
251.42	5.016
251.64	4.870
251.85	4.818
252.06	4.841
252.28	4.640
252.49	4.617
252.70	4.661
252.91	4.844
253.13	4.685
253.34	4.733
253.55	4.721
253.77	4.915
253.98	5.105
254.19	4.835
254.40	4.763
254.62	5.078
254.83	5.032
255.04	4.976
255.26	4.807
255.47	4.829
255.68	4.820
255.89	4.833
256.11	4.708
256.32	4.597
256.53	4.966
256.75	4.907
256.96	4.682
257.17	4.774
257.38	4.988
257.60	5.049
257.81	4.920
258.02	4.809
258.23	4.626
258.45	4.549
258.66	4.595
258.87	4.449
259.09	4.345
259.30	4.341
259.51	4.252
259.72	4.166
259.94	4.123
260.15	4.145
260.36	4.207
260.57	4.236
260.79	4.238
261.00	4.160
261.21	4.185
261.42	4.275
261.64	4.282
261.85	4.269
262.06	4.313
262.27	4.396
262.49	4.417
262.70	4.305
262.91	4.421
263.12	4.367
263.34	4.430
263.55	4.391
263.76	4.266
263.97	4.388
264.19	4.479
264.40	4.504
264.61	4.469
264.82	4.455
265.04	4.477
265.25	4.269
265.46	4.198
265.67	4.197
265.88	4.222
266.10	4.210
266.31	4.152
266.52	4.164
266.73	4.252
266.95	4.307
267.16	4.382
267.37	4.369
267.58	4.412
267.80	4.514
268.01	4.532
268.22	4.457
268.43	4.518
268.64	4.575
268.86	4.583
269.07	4.493
269.28	4.306
269.49	4.262
269.71	4.231
269.92	4.079
270.13	4.136
270.34	4.096
270.55	4.136
270.77	4.192
270.98	4.136
271.19	4.173
271.40	4.163
271.61	4.158
271.83	4.141
272.04	4.100
272.25	4.217
272.46	4.124
272.68	4.207
272.89	4.230
273.10	4.123
273.31	4.027
273.52	3.986
273.74	3.954
273.95	3.943
274.16	3.988
274.37	4.029
274.58	4.028
274.80	4.038
275.01	4.013
275.22	4.025
275.43	4.182
275.64	4.382
275.86	4.394
276.07	4.384
276.28	4.534
276.49	4.459
276.70	4.376
276.91	4.336
277.13	4.310
277.34	4.290
277.55	4.282
277.76	4.171
277.97	4.021
278.19	3.952
278.40	4.051
278.61	3.987
278.82	3.972
279.03	4.069
279.24	4.069
279.46	4.097
279.67	4.035
279.88	3.968
280.09	4.007
280.30	4.024
280.52	4.116
280.73	4.112
280.94	4.138
281.15	4.132
281.36	4.205
281.57	4.308
281.79	4.307
282.00	4.332
282.21	4.321
282.42	4.323
282.63	4.415
282.84	4.349
283.06	4.276
283.27	4.336
283.48	4.270
283.69	4.152
283.90	4.099
284.11	4.122
284.32	4.094
284.54	4.130
284.75	4.135
284.96	4.046
285.17	4.083
285.38	4.086
285.59	4.054
285.81	4.172
286.02	4.251
286.23	4.212
286.44	4.242
286.65	4.297
286.86	4.287
287.07	4.251
287.29	4.290
287.50	4.308
287.71	4.349
287.92	4.400
288.13	4.365
288.34	4.374
288.55	4.533
288.77	4.599
288.98	4.589
289.19	4.626
289.40	4.722
289.61	4.808
289.82	4.835
290.03	4.794
290.24	4.847
290.46	4.892
290.67	4.915
290.88	4.901
291.09	4.867
291.30	4.953
291.51	5.047
291.72	5.114
291.93	5.231
292.15	5.324
292.36	5.560
292.57	5.521
292.78	5.516
292.99	5.573
293.20	5.695
293.41	5.664
293.62	5.728
293.84	5.785
294.05	5.845
294.26	5.757
294.47	5.785
294.68	5.764
294.89	5.899
295.10	5.972
295.31	5.996
295.52	5.971
295.73	6.149
295.95	6.148
296.16	6.228
296.37	6.219
296.58	6.296
296.79	6.282
297.00	6.276
297.21	6.281
297.42	6.238
297.63	6.235
297.84	6.243
298.06	6.198
298.27	6.226
298.48	6.220
298.69	6.235
298.90	6.271
299.11	6.369
299.32	6.388
299.53	6.424
299.74	6.560
299.95	6.687
300.16	6.730
300.38	6.821
300.59	6.837
300.80	6.822
301.01	6.833
301.22	6.857
301.43	6.860
301.64	6.945
301.85	6.924
302.06	6.962
302.27	6.979
302.48	7.093
302.69	7.092
302.91	7.063
303.12	7.158
303.33	7.218
303.54	7.264
303.75	7.265
303.96	7.319
304.17	7.383
304.38	7.394
304.59	7.424
304.80	7.379
305.01	7.458
305.22	7.562
305.43	7.595
305.64	7.700
305.85	7.638
306.06	7.785
306.28	7.879
306.49	7.998
306.70	8.050
306.91	8.079
307.12	8.152
307.33	8.119
307.54	8.201
307.75	8.193
307.96	8.231
308.17	8.351
308.38	8.346
308.59	8.358
308.80	8.338
309.01	8.381
309.22	8.434
309.43	8.434
309.64	8.531
309.85	8.580
310.06	8.684
310.27	8.723
310.48	8.766
310.70	8.797
310.91	8.861
311.12	8.893
311.33	8.956
311.54	8.944
311.75	9.010
311.96	9.043
312.17	9.121
312.38	9.157
312.59	9.185
312.80	9.220
313.01	9.222
313.22	9.269
313.43	9.347
313.64	9.359
313.85	9.435
314.06	9.505
314.27	9.570
314.48	9.618
314.69	9.688
314.90	9.757
315.11	9.856
315.32	9.956
315.53	9.929
315.74	9.987
315.95	10.079
316.16	10.244
316.37	10.284
316.58	10.325
316.79	10.293
317.00	10.358
317.21	10.391
317.42	10.427
317.63	10.531
317.84	10.615
318.05	10.687
318.26	10.746
318.47	10.746
318.68	10.801
318.89	10.872
319.10	10.954
319.31	10.927
319.52	11.018
319.73	11.124
319.94	11.151
320.15	11.243
320.36	11.339
320.57	11.413
320.78	11.506
320.99	11.513
321.20	11.626
321.41	11.705
321.62	11.775
321.83	11.846
322.04	11.882
322.25	12.017
322.46	12.077
322.67	12.189
322.88	12.235
323.09	12.241
323.30	12.391
323.51	12.354
323.72	12.481
323.93	12.521
324.14	12.614
324.35	12.724
324.56	12.719
324.77	12.749
324.98	12.713
325.19	12.797
325.40	12.871
325.61	12.956
325.82	13.085
326.03	13.111
326.24	13.199
326.45	13.250
326.65	13.217
326.86	13.287
327.07	13.388
327.28	13.451
327.49	13.489
327.70	13.541
327.91	13.588
328.12	13.674
328.33	13.634
328.54	13.702
328.75	13.739
328.96	13.849
329.17	13.858
329.38	13.900
329.59	13.988
329.80	14.101
330.01	14.180
330.22	14.252
330.43	14.296
330.64	14.402
330.85	14.464
331.05	14.469
331.26	14.559
331.47	14.658
331.68	14.716
331.89	14.821
332.10	14.875
332.31	14.938
332.52	14.967
332.73	14.969
332.94	15.072
333.15	15.135
333.36	15.288
333.57	15.283
333.78	15.335
333.99	15.405
334.19	15.471
334.40	15.523
334.61	15.646
334.82	15.720
335.03	15.767
335.24	15.828
335.45	15.920
335.66	15.973
335.87	16.079
336.08	16.154
336.29	16.242
336.50	16.254
336.71	16.350
336.91	16.351
337.12	16.369
337.33	16.505
337.54	16.564
337.75	16.570
337.96	16.593
338.17	16.681
338.38	16.718
338.59	16.814
338.80	16.824
339.01	16.826
339.21	16.879
339.42	17.023
339.63	17.035
339.84	17.115
340.05	17.207
340.26	17.251
340.47	17.267
340.68	17.329
340.89	17.298
341.10	17.332
341.30	17.417
341.51	17.495
341.72	17.525
341.93	17.616
342.14	17.590
342.35	17.650
342.56	17.758
342.77	17.850
342.98	17.888
343.18	17.976
343.39	18.078
343.60	18.107
343.81	18.158
344.02	18.233
344.23	18.302
344.44	18.448
344.65	18.532
344.85	18.518
345.06	18.570
345.27	18.671
345.48	18.682
345.69	18.799
345.90	18.915
346.11	19.016
346.32	19.020
346.52	19.004
346.73	18.984
346.94	18.971
347.15	19.060
347.36	19.066
347.57	19.114
347.78	19.226
347.98	19.282
348.19	19.270
348.40	19.267
348.61	19.363
348.82	19.453
349.03	19.568
349.24	19.629
349.44	19.701
349.65	19.768
349.86	19.787
350.07	19.834
350.28	19.851
350.49	19.876
350.70	19.934
350.90	19.930
351.11	19.984
351.32	20.018
351.53	20.152
351.74	20.125
351.95	20.163
352.15	20.229
352.36	20.259
352.57	20.277
352.78	20.428
352.99	20.470
353.20	20.565
353.40	20.625
353.61	20.647
353.82	20.623
354.03	20.770
354.24	20.827
354.45	20.918
354.65	21.063
354.86	21.137
355.07	21.113
355.28	21.259
355.49	21.340
355.70	21.402
355.90	21.450
356.11	21.588
356.32	21.644
356.53	21.731
356.74	21.804
356.94	21.778
357.15	21.880
357.36	21.965
357.57	21.974
357.78	22.017
357.99	22.052
358.19	22.128
358.40	22.131
358.61	22.160
358.82	22.236
359.03	22.252
359.23	22.346
359.44	22.371
359.65	22.407
359.86	22.464
360.07	22.543
360.27	22.617
360.48	22.727
360.69	22.819
360.90	22.867
361.11	22.991
361.31	23.073
361.52	23.124
361.73	23.189
361.94	23.312
362.15	23.366
362.35	23.399
362.56	23.447
362.77	23.475
362.98	23.508
363.18	23.543
363.39	23.496
363.60	23.535
363.81	23.556
364.02	23.602
364.22	23.648
364.43	23.668
364.64	23.688
364.85	23.723
365.05	23.807
365.26	23.836
365.47	23.932
365.68	24.013
365.89	24.067
366.09	24.129
366.30	24.161
366.51	24.189
366.72	24.246
366.92	24.354
367.13	24.452
367.34	24.471
367.55	24.529
367.75	24.570
367.96	24.617
368.17	24.633
368.38	24.705
368.58	24.776
368.79	24.765
369.00	24.845
369.21	24.864
369.41	24.896
369.62	24.907
369.83	24.976
370.04	25.035
370.24	25.091
370.45	25.220
370.66	25.279
370.87	25.251
371.07	25.289
371.28	25.342
371.49	25.396
371.70	25.446
371.90	25.517
372.11	25.502
372.32	25.545
372.53	25.605
372.73	25.596
372.94	25.580
373.15	25.712
373.36	25.823
373.56	25.894
373.77	25.946
373.98	26.001
374.19	26.061
374.39	26.158
374.60	26.206
374.81	26.220
375.01	26.243
375.22	26.333
375.43	26.387
375.64	26.414
375.84	26.450
376.05	26.492
376.26	26.559
376.46	26.586
376.67	26.629
376.88	26.686
377.09	26.746
377.29	26.819
377.50	26.854
377.71	26.887
377.91	26.961
378.12	27.014
378.33	27.112
378.54	27.140
378.74	27.220
378.95	27.297
379.16	27.379
379.36	27.455
379.57	27.542
379.78	27.606
379.99	27.684
380.19	27.703
380.40	27.683
380.61	27.706
380.81	27.766
381.02	27.813
381.23	27.853
381.43	27.910
381.64	27.981
381.85	28.020
382.05	28.095
382.26	28.184
382.47	28.254
382.67	28.365
382.88	28.391
383.09	28.442
383.30	28.496
383.50	28.599
383.71	28.615
383.92	28.647
384.12	28.669
384.33	28.695
384.54	28.731
384.74	28.809
384.95	28.862
385.16	28.904
385.36	28.944
385.57	29.003
385.78	29.015
385.98	29.081
386.19	29.124
386.40	29.223
386.60	29.268
386.81	29.316
387.02	29.338
387.22	29.394
387.43	29.474
387.64	29.554
387.84	29.556
388.05	29.608
388.26	29.633
388.46	29.639
388.67	29.691
388.88	29.777
389.08	29.793
389.29	29.889
389.49	29.914
389.70	29.972
389.91	30.029
390.11	30.104
390.32	30.188
390.53	30.285
390.73	30.385
390.94	30.418
391.15	30.453
391.35	30.537
391.56	30.590
391.77	30.668
391.97	30.722
392.18	30.785
392.38	30.879
392.59	30.938
392.80	30.991
393.00	31.041
393.21	31.070
393.42	31.151
393.62	31.208
393.83	31.232
394.04	31.253
394.24	31.278
394.45	31.288
394.65	31.346
394.86	31.376
395.07	31.436
395.27	31.504
395.48	31.588
395.68	31.599
395.89	31.630
396.10	31.688
396.30	31.739
396.51	31.816
396.72	31.906
396.92	31.902
397.13	31.970
397.33	32.014
397.54	32.044
397.75	32.098
397.95	32.140
398.16	32.191
398.36	32.258
398.57	32.343
398.78	32.401
398.98	32.470
399.19	32.526
399.39	32.569
399.60	32.589
399.81	32.656
400.01	32.722
400.22	32.812
400.42	32.876
400.63	32.926
400.84	32.990
401.04	33.041
401.25	33.054
401.45	33.126
401.66	33.140
401.86	33.210
402.07	33.277
402.28	33.346
402.48	33.400
402.69	33.471
402.89	33.525
403.10	33.593
403.31	33.656
403.51	33.716
403.72	33.803
403.92	33.889
404.13	33.924
404.33	33.926
404.54	33.953
404.75	33.983
404.95	34.050
405.16	34.081
405.36	34.116
405.57	34.202
405.77	34.249
405.98	34.242
406.18	34.267
406.39	34.312
406.60	34.368
406.80	34.376
407.01	34.479
407.21	34.451
407.42	34.522
407.62	34.566
407.83	34.573
408.03	34.641
408.24	34.726
408.45	34.742
408.65	34.828
408.86	34.902
409.06	34.975
409.27	34.999
409.47	35.094
409.68	35.104
409.88	35.148
410.09	35.155
410.29	35.213
410.50	35.248
410.71	35.354
410.91	35.369
411.12	35.399
411.32	35.506
411.53	35.536
411.73	35.568
411.94	35.618
412.14	35.666
412.35	35.715
412.55	35.706
412.76	35.730
412.96	35.748
413.17	35.801
413.37	35.881
413.58	35.906
413.78	35.929
413.99	36.002
414.19	36.090
414.40	36.161
414.61	36.230
414.81	36.311
415.02	36.376
415.22	36.423
415.43	36.504
415.63	36.518
415.84	36.567
416.04	36.647
416.25	36.680
416.45	36.709
416.66	36.741
416.86	36.783
417.07	36.779
417.27	36.813
417.48	36.855
417.68	36.874
417.89	36.914
418.09	36.939
418.30	36.968
418.50	36.990
418.71	37.042
418.91	37.093
419.12	37.166
419.32	37.265
419.53	37.337
419.73	37.392
419.94	37.440
420.14	37.468
420.34	37.479
420.55	37.503
420.75	37.553
420.96	37.546
421.16	37.550
421.37	37.546
421.57	37.576
421.78	37.592
421.98	37.631
422.19	37.660
422.39	37.728
422.60	37.817
422.80	37.886
423.01	37.920
423.21	37.997
423.42	38.037
423.62	38.057
423.83	38.043
424.03	38.060
424.23	38.067
424.44	38.079
424.64	38.089
424.85	38.113
425.05	38.128
425.26	38.175
425.46	38.225
425.67	38.275
425.87	38.321
426.08	38.413
426.28	38.472
426.48	38.528
426.69	38.602
426.89	38.663
427.10	38.701
427.30	38.756
427.51	38.775
427.71	38.792
427.92	38.796
428.12	38.869
428.32	38.875
428.53	38.905
428.73	38.935
428.94	38.954
429.14	38.963
429.35	38.968
429.55	39.004
429.76	39.053
429.96	39.073
430.16	39.121
430.37	39.153
430.57	39.181
430.78	39.221
430.98	39.271
431.19	39.321
431.39	39.355
431.59	39.402
431.80	39.406
432.00	39.383
432.21	39.389
432.41	39.413
432.61	39.409
432.82	39.399
433.02	39.416
433.23	39.411
433.43	39.432
433.64	39.483
433.84	39.520
434.04	39.590
434.25	39.678
434.45	39.750
434.66	39.804
434.86	39.886
435.06	39.984
435.27	40.055
435.47	40.131
435.68	40.143
435.88	40.162
436.08	40.156
436.29	40.137
436.49	40.138
436.70	40.139
436.90	40.140
437.10	40.141
437.31	40.147
437.51	40.155
437.71	40.190
437.92	40.251
438.12	40.270
438.33	40.311
438.53	40.334
438.73	40.347
438.94	40.362
439.14	40.397
439.35	40.426
439.55	40.472
439.75	40.503
439.96	40.527
440.16	40.548
440.36	40.584
440.57	40.601
440.77	40.655
440.97	40.701
441.18	40.771
441.38	40.800
441.59	40.830
441.79	40.845
441.99	40.902
442.20	40.935
442.40	40.991
442.60	41.041
442.81	41.102
443.01	41.139
443.21	41.175
443.42	41.176
443.62	41.226
443.83	41.295
444.03	41.334
444.23	41.332
444.44	41.355
444.64	41.374
444.84	41.391
445.05	41.371
445.25	41.319
445.45	41.299
445.66	41.291
445.86	41.297
446.06	41.295
446.27	41.295
446.47	41.315
446.67	41.331
446.88	41.335
447.08	41.334
447.28	41.360
447.49	41.449
447.69	41.504
447.89	41.567
448.10	41.609
448.30	41.651
448.50	41.680
448.71	41.713
448.91	41.705
449.11	41.703
449.32	41.765
449.52	41.832
449.72	41.835
449.93	41.879
450.13	41.892
450.33	41.909
450.53	41.911
450.74	41.987
450.94	42.007
451.14	42.089
451.35	42.130
451.55	42.094
451.75	42.080
451.96	42.112
452.16	42.098
452.36	42.118
452.57	42.118
452.77	42.155
452.97	42.133
453.17	42.122
453.38	42.120
453.58	42.134
453.78	42.163
453.99	42.196
454.19	42.216
454.39	42.258
454.59	42.271
454.80	42.324
455.00	42.340
455.20	42.395
455.41	42.450
455.61	42.451
455.81	42.499
456.01	42.527
456.22	42.537
456.42	42.575
456.62	42.609
456.83	42.678
457.03	42.686
457.23	42.699
457.43	42.711
457.64	42.716
457.84	42.757
458.04	42.795
458.25	42.838
458.45	42.914
458.65	42.920
458.85	42.925
459.06	42.863
459.26	42.850
459.46	42.833
459.66	42.803
459.87	42.806
460.07	42.797
460.27	42.803
460.47	42.808
460.68	42.795
460.88	42.791
461.08	42.800
461.28	42.885
461.49	42.922
461.69	42.993
461.89	43.045
462.09	43.094
462.30	43.133
462.50	43.147
462.70	43.173
462.90	43.191
463.11	43.226
463.31	43.234
463.51	43.232
463.71	43.269
463.92	43.270
464.12	43.303
464.32	43.330
464.52	43.350
464.72	43.358
464.93	43.369
465.13	43.402
465.33	43.401
465.53	43.407
465.74	43.397
465.94	43.389
466.14	43.366
466.34	43.330
466.54	43.293
466.75	43.274
466.95	43.289
467.15	43.295
467.35	43.265
467.56	43.277
467.76	43.318
467.96	43.341
468.16	43.376
468.36	43.433
468.57	43.510
468.77	43.554
468.97	43.587
469.17	43.603
469.37	43.629
469.58	43.656
469.78	43.708
469.98	43.707
470.18	43.746
470.38	43.776
470.59	43.792
470.79	43.830
470.99	43.868
471.19	43.905
471.39	43.953
471.60	43.992
471.80	44.032
472.00	44.029
472.20	44.063
472.40	44.042
472.61	44.028
472.81	44.035
473.01	44.007
473.21	44.022
473.41	44.038
473.61	44.005
473.82	44.016
474.02	44.022
474.22	44.050
474.42	44.096
474.62	44.165
474.82	44.236
475.03	44.306
475.23	44.347
475.43	44.380
475.63	44.425
