OOIBase32 Version 2.0.6.5 Data File
++++++++++++++++++++++++++++++++++++
Date: 11-17-2016, 11:08:33
User: Valued Ocean Optics Customer
Spectrometer Serial Number: USB4C01507
Spectrometer Channel: Master
Integration Time (msec): 49
Spectra Averaged: 25
Boxcar Smoothing: 5
Correct for Electrical Dark: Enabled
Time Normalized: Disabled
Dual-beam Reference: Disabled
Reference Channel: Master
Temperature: Not acquired
Spectrometer Type: S4000
ADC Type: USB4000
Number of Pixels in File: 3648
Graph Title: 
>>>>>Begin Spectral Data<<<<<
178.53	1618.783
178.74	2148.921
178.96	5.198
179.18	32.785
179.39	579.365
179.61	-65.001
179.82	111.513
180.04	133.749
180.25	122.344
180.47	-142.895
180.69	249.923
180.90	336.946
181.12	107.779
181.33	71.334
181.55	-27.947
181.76	-10750.324
181.98	115.443
182.20	-237.587
182.41	13.595
182.63	-72.752
182.84	-16.571
183.06	-17.107
183.27	-4.168
183.49	-3.682
183.71	-5.032
183.92	-6.826
184.14	-16.353
184.35	0.419
184.57	4.147
184.78	12.315
185.00	14.095
185.21	14.383
185.43	12.877
185.65	14.442
185.86	9.027
186.08	11.681
186.29	10.058
186.51	15.998
186.72	1.135
186.94	9.114
187.15	7.511
187.37	-1.207
187.58	7.448
187.80	9.998
188.02	10.844
188.23	10.490
188.45	5.327
188.66	19.361
188.88	23.359
189.09	26.531
189.31	29.195
189.52	27.589
189.74	32.900
189.95	28.028
190.17	25.026
190.38	24.324
190.60	38.035
190.82	46.504
191.03	30.883
191.25	22.653
191.46	28.184
191.68	19.187
191.89	20.068
192.11	24.199
192.32	30.529
192.54	28.047
192.75	26.070
192.97	25.035
193.18	20.880
193.40	28.378
193.61	34.371
193.83	30.814
194.04	27.404
194.26	27.380
194.48	22.528
194.69	19.998
194.91	23.540
195.12	23.885
195.34	27.514
195.55	21.631
195.77	16.093
195.98	11.204
196.20	6.755
196.41	5.104
196.63	6.476
196.84	8.193
197.06	7.252
197.27	7.202
197.49	4.113
197.70	-2.462
197.92	-4.119
198.13	-4.191
198.35	-5.353
198.56	-7.668
198.78	-9.331
198.99	-11.007
199.21	-11.560
199.42	-14.121
199.64	-11.822
199.85	-10.279
200.07	-11.098
200.28	-1.380
200.50	-0.469
200.71	4.684
200.93	10.339
201.14	14.598
201.36	15.158
201.57	18.171
201.79	15.010
202.00	14.111
202.22	12.416
202.43	14.868
202.65	11.993
202.86	9.791
203.08	6.595
203.29	4.547
203.51	5.221
203.72	6.014
203.94	3.608
204.15	8.164
204.37	14.375
204.58	17.649
204.80	17.805
205.01	20.039
205.22	20.697
205.44	23.722
205.65	19.299
205.87	14.404
206.08	17.405
206.30	18.246
206.51	15.212
206.73	6.040
206.94	1.730
207.16	-1.345
207.37	-4.882
207.59	-4.777
207.80	-5.235
208.02	-0.993
208.23	2.809
208.45	0.333
208.66	-2.151
208.88	-1.489
209.09	1.933
209.30	4.247
209.52	1.914
209.73	4.337
209.95	8.775
210.16	3.879
210.38	6.594
210.59	9.443
210.81	6.464
211.02	6.769
211.24	8.169
211.45	6.755
211.66	7.629
211.88	9.936
212.09	10.385
212.31	6.168
212.52	8.617
212.74	5.023
212.95	1.336
213.17	4.353
213.38	5.541
213.60	8.285
213.81	7.286
214.02	8.298
214.24	10.033
214.45	7.064
214.67	7.354
214.88	6.202
215.10	9.051
215.31	10.268
215.53	7.215
215.74	7.855
215.95	5.343
216.17	5.957
216.38	2.479
216.60	-1.705
216.81	0.311
217.03	0.553
217.24	2.196
217.45	1.382
217.67	1.707
217.88	4.159
218.10	4.480
218.31	5.412
218.53	5.679
218.74	6.084
218.95	6.167
219.17	5.622
219.38	7.674
219.60	8.111
219.81	8.758
220.03	8.642
220.24	8.587
220.45	6.498
220.67	6.092
220.88	6.455
221.10	6.638
221.31	7.829
221.53	6.968
221.74	5.172
221.95	4.789
222.17	3.183
222.38	3.563
222.60	2.446
222.81	2.886
223.02	2.832
223.24	2.797
223.45	3.529
223.67	2.881
223.88	3.417
224.09	4.773
224.31	4.490
224.52	5.700
224.74	5.020
224.95	5.973
225.16	6.046
225.38	5.774
225.59	5.606
225.81	5.101
226.02	5.414
226.23	5.017
226.45	4.679
226.66	4.603
226.88	4.753
227.09	5.240
227.30	4.931
227.52	5.141
227.73	5.033
227.95	4.933
228.16	4.942
228.37	4.917
228.59	5.025
228.80	5.043
229.02	4.982
229.23	4.913
229.44	4.791
229.66	4.820
229.87	4.809
230.08	4.791
230.30	4.762
230.51	4.823
230.73	4.837
230.94	4.834
231.15	4.635
231.37	4.755
231.58	4.636
231.80	4.771
232.01	5.062
232.22	4.942
232.44	5.090
232.65	5.400
232.86	4.923
233.08	5.006
233.29	4.895
233.51	5.200
233.72	5.010
233.93	5.106
234.15	5.029
234.36	4.846
234.57	4.780
234.79	5.027
235.00	4.899
235.21	5.360
235.43	5.206
235.64	4.944
235.86	4.792
236.07	4.793
236.28	4.558
236.50	4.434
236.71	4.421
236.92	4.514
237.14	4.380
237.35	4.668
237.56	4.619
237.78	4.586
237.99	4.816
238.20	4.869
238.42	5.208
238.63	5.209
238.84	5.509
239.06	5.394
239.27	5.116
239.48	5.009
239.70	4.746
239.91	4.482
240.13	4.419
240.34	4.345
240.55	4.170
240.77	4.125
240.98	4.137
241.19	4.188
241.41	3.989
241.62	3.975
241.83	3.958
242.05	4.027
242.26	4.051
242.47	4.116
242.69	4.145
242.90	4.244
243.11	4.184
243.33	4.204
243.54	4.060
243.75	4.206
243.97	4.332
244.18	4.319
244.39	4.230
244.61	4.180
244.82	4.225
245.03	4.256
245.24	4.140
245.46	4.130
245.67	4.120
245.88	4.075
246.10	4.066
246.31	4.013
246.52	3.973
246.74	3.950
246.95	3.956
247.16	3.926
247.38	3.897
247.59	3.921
247.80	3.941
248.02	3.950
248.23	3.954
248.44	3.929
248.66	3.951
248.87	4.041
249.08	4.077
249.29	4.131
249.51	4.157
249.72	4.301
249.93	4.382
250.15	4.377
250.36	4.357
250.57	4.350
250.79	4.534
251.00	4.493
251.21	4.406
251.42	4.434
251.64	4.373
251.85	4.439
252.06	4.415
252.28	4.284
252.49	4.308
252.70	4.276
252.91	4.300
253.13	4.210
253.34	4.229
253.55	4.204
253.77	4.174
253.98	4.246
254.19	4.037
254.40	3.742
254.62	3.846
254.83	3.748
255.04	3.664
255.26	3.572
255.47	3.443
255.68	3.387
255.89	3.492
256.11	3.343
256.32	3.203
256.53	3.258
256.75	3.389
256.96	3.303
257.17	3.461
257.38	3.680
257.60	3.839
257.81	3.863
258.02	3.801
258.23	3.772
258.45	3.837
258.66	3.851
258.87	3.792
259.09	3.745
259.30	3.713
259.51	3.654
259.72	3.607
259.94	3.575
260.15	3.551
260.36	3.636
260.57	3.626
260.79	3.637
261.00	3.637
261.21	3.638
261.42	3.687
261.64	3.710
261.85	3.760
262.06	3.842
262.27	3.848
262.49	3.946
262.70	3.754
262.91	3.759
263.12	3.689
263.34	3.661
263.55	3.600
263.76	3.573
263.97	3.647
264.19	3.637
264.40	3.507
264.61	3.592
264.82	3.589
265.04	3.524
265.25	3.487
265.46	3.510
265.67	3.543
265.88	3.652
266.10	3.536
266.31	3.483
266.52	3.412
266.73	3.532
266.95	3.517
267.16	3.422
267.37	3.429
267.58	3.403
267.80	3.438
268.01	3.367
268.22	3.357
268.43	3.493
268.64	3.559
268.86	3.502
269.07	3.364
269.28	3.262
269.49	3.314
269.71	3.359
269.92	3.309
270.13	3.385
270.34	3.413
270.55	3.442
270.77	3.477
270.98	3.386
271.19	3.509
271.40	3.570
271.61	3.529
271.83	3.492
272.04	3.487
272.25	3.550
272.46	3.456
272.68	3.517
272.89	3.491
273.10	3.385
273.31	3.329
273.52	3.347
273.74	3.270
273.95	3.277
274.16	3.412
274.37	3.456
274.58	3.423
274.80	3.452
275.01	3.397
275.22	3.396
275.43	3.522
275.64	3.568
275.86	3.573
276.07	3.610
276.28	3.755
276.49	3.672
276.70	3.554
276.91	3.575
277.13	3.432
277.34	3.429
277.55	3.542
277.76	3.351
277.97	3.347
278.19	3.289
278.40	3.427
278.61	3.326
278.82	3.304
279.03	3.321
279.24	3.304
279.46	3.360
279.67	3.324
279.88	3.112
280.09	3.222
280.30	3.301
280.52	3.311
280.73	3.235
280.94	3.232
281.15	3.205
281.36	3.320
281.57	3.382
281.79	3.418
282.00	3.430
282.21	3.417
282.42	3.397
282.63	3.393
282.84	3.354
283.06	3.299
283.27	3.341
283.48	3.384
283.69	3.279
283.90	3.217
284.11	3.153
284.32	3.158
284.54	3.199
284.75	3.160
284.96	3.139
285.17	3.178
285.38	3.237
285.59	3.209
285.81	3.186
286.02	3.256
286.23	3.234
286.44	3.344
286.65	3.459
286.86	3.462
287.07	3.446
287.29	3.461
287.50	3.433
287.71	3.350
287.92	3.340
288.13	3.359
288.34	3.305
288.55	3.403
288.77	3.370
288.98	3.215
289.19	3.216
289.40	3.283
289.61	3.346
289.82	3.366
290.03	3.355
290.24	3.440
290.46	3.403
290.67	3.454
290.88	3.455
291.09	3.398
291.30	3.402
291.51	3.430
291.72	3.480
291.93	3.400
292.15	3.370
292.36	3.518
292.57	3.515
292.78	3.512
292.99	3.371
293.20	3.382
293.41	3.414
293.62	3.418
293.84	3.464
294.05	3.362
294.26	3.435
294.47	3.385
294.68	3.335
294.89	3.296
295.10	3.255
295.31	3.345
295.52	3.295
295.73	3.175
295.95	3.181
296.16	3.148
296.37	3.191
296.58	3.153
296.79	3.150
297.00	3.107
297.21	3.050
297.42	3.039
297.63	3.036
297.84	3.033
298.06	3.033
298.27	3.062
298.48	3.100
298.69	3.049
298.90	3.029
299.11	3.074
299.32	3.137
299.53	3.152
299.74	3.216
299.95	3.184
300.16	3.128
300.38	3.227
300.59	3.153
300.80	3.029
301.01	3.039
301.22	3.001
301.43	2.937
301.64	2.869
301.85	2.791
302.06	2.783
302.27	2.777
302.48	2.838
302.69	2.818
302.91	2.815
303.12	2.854
303.33	2.816
303.54	2.855
303.75	2.829
303.96	2.837
304.17	2.905
304.38	2.910
304.59	2.939
304.80	2.931
305.01	2.936
305.22	2.958
305.43	2.971
305.64	3.017
305.85	2.972
306.06	3.066
306.28	3.084
306.49	3.092
306.70	3.057
306.91	2.938
307.12	2.918
307.33	2.839
307.54	2.889
307.75	2.895
307.96	2.811
308.17	2.842
308.38	2.764
308.59	2.720
308.80	2.733
309.01	2.687
309.22	2.772
309.43	2.780
309.64	2.784
309.85	2.718
310.06	2.681
310.27	2.799
310.48	2.779
310.70	2.813
310.91	2.834
311.12	2.813
311.33	2.877
311.54	2.794
311.75	2.729
311.96	2.761
312.17	2.770
312.38	2.786
312.59	2.729
312.80	2.754
313.01	2.703
313.22	2.714
313.43	2.670
313.64	2.629
313.85	2.687
314.06	2.718
314.27	2.706
314.48	2.791
314.69	2.829
314.90	2.850
315.11	2.730
315.32	2.754
315.53	2.760
315.74	2.767
315.95	2.749
316.16	2.724
316.37	2.680
316.58	2.627
316.79	2.550
317.00	2.588
317.21	2.478
317.42	2.513
317.63	2.578
317.84	2.483
318.05	2.460
318.26	2.440
318.47	2.457
318.68	2.540
318.89	2.628
319.10	2.611
319.31	2.464
319.52	2.557
319.73	2.545
319.94	2.481
320.15	2.503
320.36	2.570
320.57	2.566
320.78	2.582
320.99	2.485
321.20	2.495
321.41	2.514
321.62	2.514
321.83	2.522
322.04	2.540
322.25	2.535
322.46	2.522
322.67	2.589
322.88	2.551
323.09	2.508
323.30	2.502
323.51	2.417
323.72	2.432
323.93	2.446
324.14	2.439
324.35	2.458
324.56	2.450
324.77	2.447
324.98	2.341
325.19	2.398
325.40	2.476
325.61	2.581
325.82	2.595
326.03	2.563
326.24	2.600
326.45	2.558
326.65	2.550
326.86	2.537
327.07	2.556
327.28	2.570
327.49	2.587
327.70	2.510
327.91	2.439
328.12	2.435
328.33	2.389
328.54	2.391
328.75	2.457
328.96	2.435
329.17	2.451
329.38	2.426
329.59	2.429
329.80	2.411
330.01	2.464
330.22	2.442
330.43	2.443
330.64	2.478
330.85	2.465
331.05	2.400
331.26	2.421
331.47	2.369
331.68	2.447
331.89	2.424
332.10	2.333
332.31	2.314
332.52	2.320
332.73	2.284
332.94	2.277
333.15	2.274
333.36	2.331
333.57	2.271
333.78	2.307
333.99	2.210
334.19	2.237
334.40	2.285
334.61	2.292
334.82	2.323
335.03	2.308
335.24	2.291
335.45	2.283
335.66	2.220
335.87	2.256
336.08	2.327
336.29	2.366
336.50	2.315
336.71	2.359
336.91	2.373
337.12	2.314
337.33	2.372
337.54	2.366
337.75	2.358
337.96	2.322
338.17	2.346
338.38	2.235
338.59	2.265
338.80	2.234
339.01	2.181
339.21	2.128
339.42	2.147
339.63	2.110
339.84	2.157
340.05	2.147
340.26	2.104
340.47	2.083
340.68	2.116
340.89	2.102
341.10	2.141
341.30	2.176
341.51	2.206
341.72	2.266
341.93	2.313
342.14	2.214
342.35	2.267
342.56	2.333
342.77	2.360
342.98	2.320
343.18	2.282
343.39	2.269
343.60	2.270
343.81	2.262
344.02	2.252
344.23	2.218
344.44	2.274
344.65	2.185
344.85	2.147
345.06	2.131
345.27	2.171
345.48	2.194
345.69	2.232
345.90	2.266
346.11	2.263
346.32	2.230
346.52	2.222
346.73	2.232
346.94	2.271
347.15	2.332
347.36	2.312
347.57	2.333
347.78	2.321
347.98	2.332
348.19	2.288
348.40	2.290
348.61	2.324
348.82	2.371
349.03	2.339
349.24	2.339
349.44	2.339
349.65	2.325
349.86	2.315
350.07	2.337
350.28	2.298
350.49	2.284
350.70	2.240
350.90	2.195
351.11	2.131
351.32	2.176
351.53	2.226
351.74	2.213
351.95	2.195
352.15	2.156
352.36	2.104
352.57	2.114
352.78	2.182
352.99	2.233
353.20	2.290
353.40	2.276
353.61	2.212
353.82	2.134
354.03	2.160
354.24	2.187
354.45	2.246
354.65	2.309
354.86	2.289
355.07	2.263
355.28	2.301
355.49	2.272
355.70	2.286
355.90	2.329
356.11	2.345
356.32	2.330
356.53	2.329
356.74	2.287
356.94	2.242
357.15	2.283
357.36	2.271
357.57	2.236
357.78	2.233
357.99	2.288
358.19	2.246
358.40	2.264
358.61	2.301
358.82	2.341
359.03	2.340
359.23	2.352
359.44	2.352
359.65	2.339
359.86	2.355
360.07	2.355
360.27	2.357
360.48	2.390
360.69	2.421
360.90	2.372
361.11	2.435
361.31	2.470
361.52	2.464
361.73	2.460
361.94	2.494
362.15	2.463
362.35	2.462
362.56	2.460
362.77	2.463
362.98	2.422
363.18	2.444
363.39	2.371
363.60	2.367
363.81	2.386
364.02	2.402
364.22	2.409
364.43	2.367
364.64	2.371
364.85	2.337
365.05	2.332
365.26	2.338
365.47	2.337
365.68	2.336
365.89	2.338
366.09	2.348
366.30	2.350
366.51	2.315
366.72	2.366
366.92	2.391
367.13	2.426
367.34	2.429
367.55	2.437
367.75	2.440
367.96	2.450
368.17	2.428
368.38	2.428
368.58	2.393
368.79	2.369
369.00	2.368
369.21	2.348
369.41	2.327
369.62	2.350
369.83	2.330
370.04	2.306
370.24	2.311
370.45	2.349
370.66	2.344
370.87	2.308
371.07	2.296
371.28	2.320
371.49	2.287
371.70	2.262
371.90	2.237
372.11	2.256
372.32	2.296
372.53	2.289
372.73	2.238
372.94	2.200
373.15	2.273
373.36	2.301
373.56	2.264
373.77	2.292
373.98	2.339
374.19	2.344
374.39	2.366
374.60	2.367
374.81	2.393
375.01	2.431
375.22	2.447
375.43	2.416
375.64	2.399
375.84	2.436
376.05	2.453
376.26	2.423
376.46	2.410
376.67	2.379
376.88	2.370
377.09	2.330
377.29	2.314
377.50	2.316
377.71	2.318
377.91	2.336
378.12	2.313
378.33	2.332
378.54	2.367
378.74	2.381
378.95	2.370
379.16	2.368
379.36	2.362
379.57	2.360
379.78	2.386
379.99	2.400
380.19	2.387
380.40	2.348
380.61	2.300
380.81	2.277
381.02	2.277
381.23	2.285
381.43	2.263
381.64	2.304
381.85	2.342
382.05	2.339
382.26	2.325
382.47	2.340
382.67	2.388
382.88	2.415
383.09	2.429
383.30	2.438
383.50	2.461
383.71	2.489
383.92	2.446
384.12	2.405
384.33	2.372
384.54	2.386
384.74	2.374
384.95	2.381
385.16	2.348
385.36	2.344
385.57	2.341
385.78	2.347
385.98	2.332
386.19	2.341
386.40	2.356
386.60	2.354
386.81	2.339
387.02	2.337
387.22	2.324
387.43	2.360
387.64	2.341
387.84	2.349
388.05	2.335
388.26	2.328
388.46	2.330
388.67	2.352
388.88	2.370
389.08	2.384
389.29	2.394
389.49	2.384
389.70	2.351
389.91	2.345
390.11	2.316
390.32	2.334
390.53	2.348
390.73	2.350
390.94	2.328
391.15	2.340
391.35	2.325
391.56	2.339
391.77	2.346
391.97	2.368
392.18	2.388
392.38	2.423
392.59	2.418
392.80	2.411
393.00	2.411
393.21	2.407
393.42	2.420
393.62	2.444
393.83	2.448
394.04	2.452
394.24	2.443
394.45	2.445
394.65	2.449
394.86	2.438
395.07	2.437
395.27	2.437
395.48	2.425
395.68	2.416
395.89	2.403
396.10	2.395
396.30	2.366
396.51	2.397
396.72	2.396
396.92	2.372
397.13	2.383
397.33	2.388
397.54	2.381
397.75	2.398
397.95	2.406
398.16	2.391
398.36	2.391
398.57	2.424
398.78	2.387
398.98	2.385
399.19	2.377
399.39	2.388
399.60	2.373
399.81	2.381
400.01	2.367
400.22	2.345
400.42	2.389
400.63	2.371
400.84	2.377
401.04	2.422
401.25	2.419
401.45	2.437
401.66	2.406
401.86	2.412
402.07	2.436
402.28	2.451
402.48	2.450
402.69	2.430
402.89	2.431
403.10	2.421
403.31	2.400
403.51	2.396
403.72	2.412
403.92	2.420
404.13	2.407
404.33	2.398
404.54	2.385
404.75	2.378
404.95	2.394
405.16	2.398
405.36	2.377
405.57	2.364
405.77	2.381
405.98	2.365
406.18	2.345
406.39	2.360
406.60	2.345
406.80	2.367
407.01	2.387
407.21	2.364
407.42	2.391
407.62	2.432
407.83	2.418
408.03	2.387
408.24	2.373
408.45	2.374
408.65	2.399
408.86	2.408
409.06	2.402
409.27	2.397
409.47	2.389
409.68	2.358
409.88	2.359
410.09	2.382
410.29	2.378
410.50	2.410
410.71	2.437
410.91	2.422
411.12	2.425
411.32	2.409
411.53	2.386
411.73	2.404
411.94	2.400
412.14	2.399
412.35	2.395
412.55	2.433
412.76	2.403
412.96	2.408
413.17	2.397
413.37	2.402
413.58	2.430
413.78	2.450
413.99	2.454
414.19	2.509
414.40	2.513
414.61	2.508
414.81	2.510
415.02	2.519
415.22	2.502
415.43	2.517
415.63	2.517
415.84	2.505
416.04	2.506
416.25	2.498
416.45	2.475
416.66	2.482
416.86	2.498
417.07	2.475
417.27	2.475
417.48	2.479
417.68	2.484
417.89	2.493
418.09	2.492
418.30	2.484
418.50	2.474
418.71	2.466
418.91	2.457
419.12	2.433
419.32	2.423
419.53	2.420
419.73	2.406
419.94	2.405
420.14	2.377
420.34	2.387
420.55	2.390
420.75	2.392
420.96	2.390
421.16	2.382
421.37	2.401
421.57	2.429
421.78	2.432
421.98	2.435
422.19	2.429
422.39	2.458
422.60	2.441
422.80	2.439
423.01	2.439
423.21	2.454
423.42	2.457
423.62	2.442
423.83	2.420
424.03	2.416
424.23	2.431
424.44	2.429
424.64	2.426
424.85	2.436
425.05	2.443
425.26	2.456
425.46	2.458
425.67	2.447
425.87	2.452
426.08	2.477
426.28	2.488
426.48	2.485
426.69	2.500
426.89	2.499
427.10	2.513
427.30	2.531
427.51	2.524
427.71	2.522
427.92	2.512
428.12	2.533
428.32	2.527
428.53	2.522
428.73	2.523
428.94	2.504
429.14	2.498
429.35	2.481
429.55	2.465
429.76	2.467
429.96	2.456
430.16	2.493
430.37	2.484
430.57	2.499
430.78	2.505
430.98	2.516
431.19	2.520
431.39	2.509
431.59	2.500
431.80	2.501
432.00	2.495
432.21	2.502
432.41	2.482
432.61	2.473
432.82	2.457
433.02	2.470
433.23	2.460
433.43	2.469
433.64	2.470
433.84	2.483
434.04	2.493
434.25	2.507
434.45	2.500
434.66	2.516
434.86	2.514
435.06	2.521
435.27	2.505
435.47	2.494
435.68	2.479
435.88	2.496
436.08	2.482
436.29	2.451
436.49	2.457
436.70	2.457
436.90	2.460
437.10	2.487
437.31	2.471
437.51	2.462
437.71	2.480
437.92	2.485
438.12	2.480
438.33	2.500
438.53	2.508
438.73	2.493
438.94	2.489
439.14	2.507
439.35	2.498
439.55	2.512
439.75	2.531
439.96	2.542
440.16	2.555
440.36	2.562
440.57	2.552
440.77	2.561
440.97	2.556
441.18	2.568
441.38	2.552
441.59	2.550
441.79	2.549
441.99	2.545
442.20	2.509
442.40	2.507
442.60	2.509
442.81	2.498
443.01	2.488
443.21	2.488
443.42	2.480
443.62	2.480
443.83	2.510
444.03	2.504
444.23	2.519
444.44	2.547
444.64	2.537
444.84	2.513
445.05	2.509
445.25	2.512
445.45	2.528
445.66	2.531
445.86	2.527
446.06	2.507
446.27	2.515
446.47	2.497
446.67	2.498
446.88	2.500
447.08	2.513
447.28	2.532
447.49	2.540
447.69	2.532
447.89	2.538
448.10	2.542
448.30	2.554
448.50	2.538
448.71	2.532
448.91	2.528
449.11	2.532
449.32	2.540
449.52	2.548
449.72	2.552
449.93	2.545
450.13	2.537
450.33	2.545
450.53	2.517
450.74	2.533
450.94	2.548
451.14	2.560
451.35	2.572
451.55	2.563
451.75	2.556
451.96	2.541
452.16	2.549
452.36	2.554
452.57	2.560
452.77	2.584
452.97	2.579
453.17	2.587
453.38	2.590
453.58	2.560
453.78	2.550
453.99	2.547
454.19	2.562
454.39	2.559
454.59	2.564
454.80	2.555
455.00	2.572
455.20	2.571
455.41	2.556
455.61	2.549
455.81	2.587
456.01	2.598
456.22	2.616
456.42	2.613
456.62	2.623
456.83	2.631
457.03	2.631
457.23	2.612
457.43	2.613
457.64	2.629
457.84	2.617
458.04	2.602
458.25	2.603
458.45	2.589
458.65	2.580
458.85	2.574
459.06	2.554
459.26	2.552
459.46	2.550
459.66	2.556
459.87	2.558
460.07	2.560
460.27	2.561
460.47	2.564
460.68	2.575
460.88	2.577
461.08	2.579
461.28	2.594
461.49	2.596
461.69	2.606
461.89	2.609
462.09	2.615
462.30	2.612
462.50	2.624
462.70	2.625
462.90	2.602
463.11	2.619
463.31	2.617
463.51	2.608
463.71	2.616
463.92	2.620
464.12	2.620
464.32	2.613
464.52	2.613
464.72	2.599
464.93	2.594
465.13	2.598
465.33	2.591
465.53	2.593
465.74	2.604
465.94	2.589
466.14	2.581
466.34	2.578
466.54	2.567
466.75	2.566
466.95	2.570
467.15	2.566
467.35	2.562
467.56	2.559
467.76	2.565
467.96	2.570
468.16	2.578
468.36	2.572
468.57	2.584
468.77	2.600
468.97	2.592
469.17	2.592
469.37	2.605
469.58	2.606
469.78	2.611
469.98	2.615
470.18	2.604
470.38	2.613
470.59	2.617
470.79	2.599
470.99	2.585
471.19	2.589
471.39	2.590
471.60	2.587
471.80	2.576
472.00	2.579
472.20	2.583
472.40	2.603
472.61	2.594
472.81	2.606
473.01	2.616
473.21	2.632
473.41	2.641
473.61	2.645
473.82	2.660
474.02	2.673
474.22	2.677
474.42	2.684
474.62	2.686
474.82	2.692
475.03	2.701
475.23	2.700
475.43	2.705
475.63	2.713
475.83	2.698
476.03	2.678
476.24	2.667
476.44	2.668
476.64	2.646
476.84	2.641
477.04	2.632
477.24	2.623
477.45	2.619
477.65	2.616
477.85	2.605
478.05	2.610
478.25	2.617
478.45	2.623
478.65	2.623
478.86	2.626
479.06	2.617
479.26	2.630
479.46	2.634
479.66	2.646
479.86	2.636
480.06	2.650
480.27	2.646
480.47	2.642
480.67	2.638
480.87	2.634
481.07	2.637
481.27	2.654
481.47	2.655
481.68	2.653
481.88	2.657
482.08	2.667
482.28	2.680
482.48	2.693
482.68	2.699
482.88	2.708
483.08	2.726
483.29	2.739
483.49	2.715
483.69	2.700
483.89	2.696
484.09	2.693
484.29	2.691
484.49	2.688
484.69	2.683
484.89	2.687
485.10	2.689
485.30	2.678
485.50	2.667
485.70	2.687
485.90	2.702
486.10	2.713
486.30	2.719
486.50	2.722
486.70	2.721
486.90	2.721
487.11	2.709
487.31	2.710
487.51	2.704
487.71	2.699
487.91	2.701
488.11	2.708
488.31	2.713
488.51	2.716
