OOIBase32 Version 2.0.6.5 Data File
++++++++++++++++++++++++++++++++++++
Date: 11-17-2016, 11:08:37
User: Valued Ocean Optics Customer
Spectrometer Serial Number: USB4C01507
Spectrometer Channel: Master
Integration Time (msec): 49
Spectra Averaged: 25
Boxcar Smoothing: 5
Correct for Electrical Dark: Enabled
Time Normalized: Disabled
Dual-beam Reference: Disabled
Reference Channel: Master
Temperature: Not acquired
Spectrometer Type: S4000
ADC Type: USB4000
Number of Pixels in File: 3648
Graph Title: 
>>>>>Begin Spectral Data<<<<<
178.53	1643.487
178.74	2110.656
178.96	89.548
179.18	-21.191
179.39	326.891
179.61	-14.164
179.82	183.563
180.04	87.386
180.25	171.176
180.47	0.025
180.69	31.615
180.90	88.192
181.12	-115.188
181.33	85.236
181.55	81.725
181.76	-3790.379
181.98	113.028
182.20	697.399
182.41	-14.244
182.63	51.750
182.84	24.571
183.06	12.287
183.27	24.940
183.49	21.589
183.71	27.158
183.92	20.596
184.14	16.582
184.35	21.954
184.57	17.952
184.78	14.832
185.00	19.689
185.21	21.284
185.43	37.669
185.65	24.946
185.86	6.308
186.08	6.138
186.29	14.227
186.51	9.531
186.72	5.361
186.94	8.583
187.15	8.571
187.37	0.703
187.58	5.050
187.80	1.734
188.02	7.305
188.23	13.687
188.45	16.968
188.66	13.817
188.88	22.171
189.09	28.443
189.31	31.709
189.52	28.324
189.74	28.247
189.95	24.476
190.17	20.539
190.38	21.824
190.60	23.965
190.82	24.714
191.03	22.505
191.25	21.326
191.46	15.257
191.68	12.791
191.89	17.962
192.11	13.612
192.32	15.299
192.54	10.953
192.75	10.974
192.97	10.300
193.18	12.712
193.40	11.760
193.61	8.489
193.83	10.679
194.04	7.093
194.26	10.200
194.48	16.107
194.69	16.329
194.91	18.075
195.12	13.568
195.34	19.897
195.55	14.421
195.77	11.966
195.98	12.907
196.20	13.102
196.41	3.986
196.63	-0.407
196.84	-4.028
197.06	-5.362
197.27	-6.503
197.49	1.014
197.70	-13.307
197.92	-13.017
198.13	-8.676
198.35	-6.339
198.56	-6.561
198.78	-2.448
198.99	-2.558
199.21	-4.991
199.42	-6.666
199.64	-0.056
199.85	-0.210
200.07	10.532
200.28	16.425
200.50	19.084
200.71	18.437
200.93	22.834
201.14	26.843
201.36	29.464
201.57	32.632
201.79	34.850
202.00	29.034
202.22	24.789
202.43	21.234
202.65	17.751
202.86	16.770
203.08	18.573
203.29	11.214
203.51	8.105
203.72	8.899
203.94	9.269
204.15	6.055
204.37	14.450
204.58	14.057
204.80	15.037
205.01	16.981
205.22	13.503
205.44	11.784
205.65	7.841
205.87	4.246
206.08	2.553
206.30	-1.514
206.51	-4.525
206.73	-11.551
206.94	-12.641
207.16	-11.680
207.37	-14.793
207.59	-13.080
207.80	-11.178
208.02	-5.327
208.23	-0.450
208.45	-2.625
208.66	0.786
208.88	5.513
209.09	7.490
209.30	8.536
209.52	5.201
209.73	6.027
209.95	10.282
210.16	8.549
210.38	10.169
210.59	9.407
210.81	8.293
211.02	6.906
211.24	6.372
211.45	5.391
211.66	7.839
211.88	9.904
212.09	11.547
212.31	10.031
212.52	10.649
212.74	5.310
212.95	3.586
213.17	7.214
213.38	9.494
213.60	11.289
213.81	12.742
214.02	10.656
214.24	10.225
214.45	4.709
214.67	0.850
214.88	-0.939
215.10	4.122
215.31	6.622
215.53	2.451
215.74	2.466
215.95	2.940
216.17	1.302
216.38	0.869
216.60	-0.458
216.81	2.838
217.03	5.336
217.24	5.913
217.45	4.100
217.67	4.335
217.88	6.068
218.10	4.631
218.31	2.021
218.53	3.193
218.74	2.883
218.95	2.244
219.17	-1.511
219.38	0.200
219.60	2.828
219.81	3.334
220.03	3.823
220.24	3.610
220.45	3.543
220.67	4.022
220.88	3.714
221.10	4.735
221.31	5.262
221.53	6.867
221.74	4.635
221.95	3.504
222.17	1.991
222.38	1.786
222.60	2.114
222.81	1.050
223.02	1.317
223.24	1.503
223.45	1.794
223.67	1.321
223.88	1.181
224.09	2.249
224.31	2.678
224.52	3.892
224.74	3.159
224.95	3.385
225.16	4.454
225.38	3.655
225.59	3.359
225.81	2.747
226.02	2.696
226.23	2.472
226.45	2.545
226.66	1.980
226.88	1.663
227.09	2.249
227.30	2.091
227.52	1.940
227.73	1.917
227.95	1.950
228.16	1.934
228.37	1.876
228.59	1.888
228.80	1.776
229.02	1.804
229.23	1.812
229.44	1.714
229.66	1.670
229.87	1.612
230.08	1.629
230.30	1.500
230.51	1.614
230.73	1.658
230.94	1.620
231.15	1.627
231.37	1.754
231.58	1.676
231.80	1.735
232.01	2.015
232.22	2.032
232.44	2.303
232.65	2.757
232.86	2.236
233.08	2.213
233.29	2.022
233.51	2.054
233.72	1.768
233.93	2.033
234.15	1.850
234.36	1.508
234.57	1.390
234.79	1.318
235.00	1.163
235.21	1.599
235.43	1.636
235.64	1.681
235.86	1.647
236.07	1.976
236.28	1.571
236.50	1.496
236.71	1.883
236.92	2.216
237.14	2.199
237.35	2.210
237.56	1.963
237.78	2.047
237.99	2.139
238.20	2.150
238.42	2.006
238.63	2.090
238.84	2.413
239.06	2.123
239.27	1.763
239.48	1.798
239.70	1.792
239.91	1.657
240.13	1.521
240.34	1.641
240.55	1.634
240.77	1.627
240.98	1.624
241.19	1.631
241.41	1.483
241.62	1.610
241.83	1.475
242.05	1.500
242.26	1.531
242.47	1.539
242.69	1.547
242.90	1.612
243.11	1.612
243.33	1.631
243.54	1.518
243.75	1.659
243.97	1.549
244.18	1.782
244.39	1.808
244.61	1.773
244.82	1.862
245.03	1.803
245.24	1.635
245.46	1.618
245.67	1.752
245.88	1.732
246.10	1.653
246.31	1.653
246.52	1.512
246.74	1.453
246.95	1.419
247.16	1.401
247.38	1.341
247.59	1.364
247.80	1.343
248.02	1.280
248.23	1.252
248.44	1.268
248.66	1.297
248.87	1.333
249.08	1.368
249.29	1.367
249.51	1.352
249.72	1.511
249.93	1.441
250.15	1.482
250.36	1.404
250.57	1.376
250.79	1.440
251.00	1.400
251.21	1.470
251.42	1.454
251.64	1.578
251.85	1.678
252.06	1.660
252.28	1.572
252.49	1.524
252.70	1.561
252.91	1.704
253.13	1.729
253.34	1.760
253.55	1.804
253.77	1.805
253.98	1.912
254.19	1.700
254.40	1.643
254.62	1.718
254.83	1.649
255.04	1.748
255.26	1.547
255.47	1.246
255.68	1.298
255.89	1.368
256.11	1.395
256.32	1.264
256.53	1.426
256.75	1.326
256.96	1.448
257.17	1.570
257.38	1.565
257.60	1.629
257.81	1.671
258.02	1.464
258.23	1.257
258.45	1.255
258.66	1.275
258.87	1.221
259.09	1.243
259.30	1.218
259.51	1.180
259.72	1.167
259.94	1.139
260.15	1.110
260.36	1.188
260.57	1.211
260.79	1.180
261.00	1.163
261.21	1.147
261.42	1.165
261.64	1.194
261.85	1.222
262.06	1.216
262.27	1.292
262.49	1.347
262.70	1.249
262.91	1.321
263.12	1.434
263.34	1.394
263.55	1.470
263.76	1.433
263.97	1.496
264.19	1.640
264.40	1.562
264.61	1.645
264.82	1.669
265.04	1.704
265.25	1.571
265.46	1.545
265.67	1.523
265.88	1.468
266.10	1.400
266.31	1.372
266.52	1.274
266.73	1.442
266.95	1.321
267.16	1.330
267.37	1.292
267.58	1.316
267.80	1.410
268.01	1.417
268.22	1.393
268.43	1.441
268.64	1.399
268.86	1.398
269.07	1.296
269.28	1.205
269.49	1.214
269.71	1.235
269.92	1.158
270.13	1.123
270.34	1.116
270.55	1.192
270.77	1.295
270.98	1.333
271.19	1.320
271.40	1.325
271.61	1.390
271.83	1.323
272.04	1.261
272.25	1.361
272.46	1.224
272.68	1.311
272.89	1.241
273.10	1.177
273.31	1.104
273.52	1.142
273.74	1.026
273.95	0.915
274.16	0.998
274.37	1.018
274.58	0.971
274.80	1.121
275.01	1.034
275.22	1.052
275.43	1.079
275.64	1.195
275.86	1.167
276.07	1.256
276.28	1.485
276.49	1.418
276.70	1.358
276.91	1.332
277.13	1.247
277.34	1.260
277.55	1.387
277.76	1.355
277.97	1.278
278.19	1.285
278.40	1.417
278.61	1.384
278.82	1.477
279.03	1.532
279.24	1.482
279.46	1.546
279.67	1.547
279.88	1.366
280.09	1.442
280.30	1.413
280.52	1.428
280.73	1.397
280.94	1.354
281.15	1.368
281.36	1.384
281.57	1.509
281.79	1.481
282.00	1.410
282.21	1.391
282.42	1.315
282.63	1.355
282.84	1.325
283.06	1.290
283.27	1.336
283.48	1.246
283.69	1.140
283.90	1.138
284.11	1.071
284.32	1.128
284.54	1.246
284.75	1.201
284.96	1.125
285.17	1.127
285.38	1.110
285.59	1.057
285.81	1.059
286.02	1.225
286.23	1.211
286.44	1.284
286.65	1.332
286.86	1.254
287.07	1.250
287.29	1.284
287.50	1.254
287.71	1.226
287.92	1.307
288.13	1.291
288.34	1.179
288.55	1.198
288.77	1.196
288.98	1.127
289.19	1.140
289.40	1.168
289.61	1.247
289.82	1.227
290.03	1.258
290.24	1.197
290.46	1.204
290.67	1.260
290.88	1.281
291.09	1.209
291.30	1.270
291.51	1.305
291.72	1.355
291.93	1.340
292.15	1.360
292.36	1.525
292.57	1.481
292.78	1.472
292.99	1.381
293.20	1.374
293.41	1.342
293.62	1.288
293.84	1.325
294.05	1.296
294.26	1.277
294.47	1.303
294.68	1.203
294.89	1.312
295.10	1.286
295.31	1.279
295.52	1.225
295.73	1.195
295.95	1.211
296.16	1.283
296.37	1.310
296.58	1.340
296.79	1.359
297.00	1.323
297.21	1.264
297.42	1.253
297.63	1.301
297.84	1.304
298.06	1.305
298.27	1.295
298.48	1.292
298.69	1.220
298.90	1.198
299.11	1.185
299.32	1.206
299.53	1.205
299.74	1.259
299.95	1.228
300.16	1.172
300.38	1.250
300.59	1.186
300.80	0.985
301.01	1.010
301.22	0.929
301.43	0.874
301.64	0.800
301.85	0.758
302.06	0.786
302.27	0.755
302.48	0.806
302.69	0.776
302.91	0.797
303.12	0.925
303.33	0.974
303.54	1.046
303.75	1.054
303.96	1.146
304.17	1.188
304.38	1.169
304.59	1.182
304.80	1.167
305.01	1.210
305.22	1.215
305.43	1.176
305.64	1.159
305.85	1.078
306.06	1.155
306.28	1.080
306.49	1.066
306.70	1.013
306.91	1.019
307.12	1.010
307.33	0.894
307.54	0.917
307.75	0.907
307.96	0.823
308.17	0.922
308.38	0.870
308.59	0.856
308.80	0.888
309.01	0.942
309.22	0.916
309.43	0.897
309.64	0.969
309.85	1.011
310.06	1.018
310.27	1.124
310.48	1.092
310.70	1.106
310.91	1.125
311.12	1.100
311.33	1.032
311.54	0.998
311.75	1.008
311.96	1.045
312.17	1.001
312.38	1.012
312.59	0.959
312.80	0.981
313.01	0.881
313.22	0.874
313.43	0.839
313.64	0.802
313.85	0.769
314.06	0.846
314.27	0.775
314.48	0.813
314.69	0.850
314.90	0.921
315.11	0.833
315.32	0.884
315.53	0.831
315.74	0.821
315.95	0.896
316.16	0.965
316.37	0.837
316.58	0.826
316.79	0.747
317.00	0.701
317.21	0.576
317.42	0.609
317.63	0.684
317.84	0.751
318.05	0.720
318.26	0.709
318.47	0.647
318.68	0.755
318.89	0.749
319.10	0.755
319.31	0.728
319.52	0.779
319.73	0.832
319.94	0.799
320.15	0.753
320.36	0.872
320.57	0.878
320.78	0.902
320.99	0.774
321.20	0.812
321.41	0.814
321.62	0.821
321.83	0.849
322.04	0.821
322.25	0.809
322.46	0.748
322.67	0.746
322.88	0.737
323.09	0.721
323.30	0.720
323.51	0.661
323.72	0.629
323.93	0.607
324.14	0.622
324.35	0.614
324.56	0.690
324.77	0.723
324.98	0.613
325.19	0.644
325.40	0.717
325.61	0.761
325.82	0.811
326.03	0.847
326.24	0.900
326.45	0.883
326.65	0.817
326.86	0.707
327.07	0.782
327.28	0.815
327.49	0.791
327.70	0.734
327.91	0.775
328.12	0.739
328.33	0.739
328.54	0.754
328.75	0.748
328.96	0.822
329.17	0.822
329.38	0.798
329.59	0.839
329.80	0.878
330.01	0.943
330.22	0.878
330.43	0.885
330.64	0.888
330.85	0.846
331.05	0.828
331.26	0.832
331.47	0.861
331.68	0.872
331.89	0.902
332.10	0.884
332.31	0.831
332.52	0.846
332.73	0.795
332.94	0.824
333.15	0.851
333.36	0.862
333.57	0.822
333.78	0.793
333.99	0.717
334.19	0.686
334.40	0.650
334.61	0.695
334.82	0.760
335.03	0.773
335.24	0.748
335.45	0.753
335.66	0.728
335.87	0.752
336.08	0.813
336.29	0.843
336.50	0.819
336.71	0.937
336.91	0.915
337.12	0.794
337.33	0.808
337.54	0.876
337.75	0.857
337.96	0.823
338.17	0.832
338.38	0.803
338.59	0.859
338.80	0.814
339.01	0.710
339.21	0.670
339.42	0.725
339.63	0.709
339.84	0.668
340.05	0.673
340.26	0.684
340.47	0.692
340.68	0.681
340.89	0.619
341.10	0.645
341.30	0.684
341.51	0.732
341.72	0.766
341.93	0.830
342.14	0.768
342.35	0.778
342.56	0.794
342.77	0.810
342.98	0.806
343.18	0.832
343.39	0.870
343.60	0.849
343.81	0.838
344.02	0.899
344.23	0.867
344.44	0.836
344.65	0.816
344.85	0.770
345.06	0.741
345.27	0.723
345.48	0.645
345.69	0.631
345.90	0.669
346.11	0.664
346.32	0.583
346.52	0.598
346.73	0.664
346.94	0.661
347.15	0.690
347.36	0.633
347.57	0.663
347.78	0.720
347.98	0.711
348.19	0.693
348.40	0.677
348.61	0.711
348.82	0.720
349.03	0.713
349.24	0.687
349.44	0.675
349.65	0.748
349.86	0.720
350.07	0.757
350.28	0.767
350.49	0.730
350.70	0.704
350.90	0.647
351.11	0.600
351.32	0.609
351.53	0.646
351.74	0.662
351.95	0.594
352.15	0.630
352.36	0.614
352.57	0.623
352.78	0.646
352.99	0.698
353.20	0.753
353.40	0.776
353.61	0.723
353.82	0.722
354.03	0.761
354.24	0.789
354.45	0.808
354.65	0.791
354.86	0.807
355.07	0.813
355.28	0.820
355.49	0.832
355.70	0.791
355.90	0.848
356.11	0.862
356.32	0.865
356.53	0.899
356.74	0.909
356.94	0.882
357.15	0.849
357.36	0.828
357.57	0.794
357.78	0.747
357.99	0.788
358.19	0.804
358.40	0.806
358.61	0.814
358.82	0.815
359.03	0.775
359.23	0.792
359.44	0.820
359.65	0.793
359.86	0.813
360.07	0.844
360.27	0.858
360.48	0.872
360.69	0.869
360.90	0.861
361.11	0.910
361.31	0.933
361.52	0.941
361.73	0.956
361.94	0.979
362.15	0.946
362.35	0.924
362.56	0.925
362.77	0.887
362.98	0.879
363.18	0.850
363.39	0.775
363.60	0.769
363.81	0.792
364.02	0.786
364.22	0.823
364.43	0.836
364.64	0.832
364.85	0.807
365.05	0.808
365.26	0.782
365.47	0.822
365.68	0.852
365.89	0.835
366.09	0.861
366.30	0.840
366.51	0.826
366.72	0.823
366.92	0.867
367.13	0.914
367.34	0.924
367.55	0.933
367.75	0.903
367.96	0.898
368.17	0.911
368.38	0.911
368.58	0.887
368.79	0.864
369.00	0.873
369.21	0.844
369.41	0.816
369.62	0.792
369.83	0.799
370.04	0.795
370.24	0.795
370.45	0.825
370.66	0.786
370.87	0.775
371.07	0.750
371.28	0.785
371.49	0.769
371.70	0.772
371.90	0.804
372.11	0.798
372.32	0.831
372.53	0.845
372.73	0.806
372.94	0.796
373.15	0.847
373.36	0.883
373.56	0.910
373.77	0.923
373.98	0.923
374.19	0.904
374.39	0.906
374.60	0.911
374.81	0.881
375.01	0.917
375.22	0.899
375.43	0.891
375.64	0.903
375.84	0.876
376.05	0.885
376.26	0.886
376.46	0.855
376.67	0.873
376.88	0.866
377.09	0.864
377.29	0.822
377.50	0.838
377.71	0.845
377.91	0.859
378.12	0.852
378.33	0.851
378.54	0.849
378.74	0.898
378.95	0.865
379.16	0.873
379.36	0.875
379.57	0.904
379.78	0.918
379.99	0.928
380.19	0.895
380.40	0.878
380.61	0.878
380.81	0.850
381.02	0.834
381.23	0.845
381.43	0.817
381.64	0.858
381.85	0.869
382.05	0.864
382.26	0.850
382.47	0.834
382.67	0.833
382.88	0.833
383.09	0.862
383.30	0.878
383.50	0.901
383.71	0.895
383.92	0.868
384.12	0.859
384.33	0.842
384.54	0.847
384.74	0.880
384.95	0.863
385.16	0.852
385.36	0.848
385.57	0.831
385.78	0.814
385.98	0.835
386.19	0.810
386.40	0.811
386.60	0.822
386.81	0.780
387.02	0.769
387.22	0.784
387.43	0.789
387.64	0.799
387.84	0.823
388.05	0.838
388.26	0.809
388.46	0.814
388.67	0.833
388.88	0.845
389.08	0.881
389.29	0.889
389.49	0.896
389.70	0.891
389.91	0.880
390.11	0.824
390.32	0.819
390.53	0.839
390.73	0.866
390.94	0.840
391.15	0.847
391.35	0.849
391.56	0.858
391.77	0.868
391.97	0.862
392.18	0.861
392.38	0.902
392.59	0.912
392.80	0.926
393.00	0.913
393.21	0.917
393.42	0.916
393.62	0.920
393.83	0.925
394.04	0.919
394.24	0.925
394.45	0.910
394.65	0.933
394.86	0.925
395.07	0.913
395.27	0.891
395.48	0.859
395.68	0.868
395.89	0.857
396.10	0.837
396.30	0.816
396.51	0.857
396.72	0.888
396.92	0.853
397.13	0.846
397.33	0.833
397.54	0.846
397.75	0.888
397.95	0.884
398.16	0.877
398.36	0.893
398.57	0.921
398.78	0.881
398.98	0.882
399.19	0.878
399.39	0.904
399.60	0.918
399.81	0.935
400.01	0.916
400.22	0.910
400.42	0.914
400.63	0.894
400.84	0.896
401.04	0.916
401.25	0.883
401.45	0.900
401.66	0.862
401.86	0.864
402.07	0.854
402.28	0.884
402.48	0.856
402.69	0.869
402.89	0.879
403.10	0.880
403.31	0.881
403.51	0.896
403.72	0.891
403.92	0.916
404.13	0.914
404.33	0.928
404.54	0.912
404.75	0.933
404.95	0.954
405.16	0.944
405.36	0.939
405.57	0.928
405.77	0.927
405.98	0.927
406.18	0.923
406.39	0.925
406.60	0.905
406.80	0.903
407.01	0.902
407.21	0.888
407.42	0.907
407.62	0.918
407.83	0.912
408.03	0.914
408.24	0.930
408.45	0.919
408.65	0.917
408.86	0.944
409.06	0.952
409.27	0.955
409.47	0.917
409.68	0.895
409.88	0.892
410.09	0.908
410.29	0.915
410.50	0.915
410.71	0.953
410.91	0.980
411.12	0.965
411.32	0.952
411.53	0.941
411.73	0.964
411.94	0.958
412.14	0.970
412.35	0.969
412.55	0.976
412.76	0.967
412.96	0.949
413.17	0.938
413.37	0.956
413.58	0.980
413.78	0.979
413.99	0.992
414.19	1.046
414.40	1.040
414.61	1.027
414.81	1.020
415.02	1.022
415.22	1.013
415.43	1.004
415.63	0.998
415.84	0.986
416.04	0.995
416.25	0.981
416.45	0.944
416.66	0.969
416.86	0.986
417.07	0.990
417.27	0.987
417.48	0.979
417.68	0.991
417.89	0.996
418.09	0.996
418.30	0.992
418.50	0.962
418.71	0.971
418.91	0.946
419.12	0.932
419.32	0.928
419.53	0.918
419.73	0.927
419.94	0.932
420.14	0.917
420.34	0.916
420.55	0.926
420.75	0.949
420.96	0.942
421.16	0.948
421.37	0.962
421.57	0.974
421.78	0.991
421.98	0.983
422.19	0.982
422.39	1.000
422.60	0.995
422.80	0.988
423.01	0.999
423.21	1.015
423.42	1.014
423.62	1.001
423.83	0.977
424.03	0.971
424.23	0.982
424.44	0.966
424.64	0.956
424.85	0.945
425.05	0.941
425.26	0.950
425.46	0.947
425.67	0.936
425.87	0.945
426.08	0.967
426.28	0.963
426.48	0.948
426.69	0.969
426.89	0.987
427.10	1.030
427.30	1.058
427.51	1.049
427.71	1.036
427.92	1.024
428.12	1.013
428.32	0.994
428.53	0.980
428.73	0.991
428.94	0.980
429.14	0.961
429.35	0.941
429.55	0.931
429.76	0.935
429.96	0.948
430.16	0.988
430.37	0.991
430.57	1.007
430.78	1.041
430.98	1.050
431.19	1.050
431.39	1.058
431.59	1.050
431.80	1.055
432.00	1.022
432.21	1.006
432.41	0.994
432.61	0.995
432.82	0.990
433.02	0.989
433.23	0.982
433.43	0.986
433.64	0.979
433.84	1.001
434.04	0.994
434.25	1.019
434.45	1.041
434.66	1.037
434.86	1.047
435.06	1.053
435.27	1.053
435.47	1.059
435.68	1.042
435.88	1.056
436.08	1.032
436.29	1.022
436.49	1.023
436.70	1.008
436.90	1.016
437.10	1.016
437.31	1.004
437.51	0.994
437.71	0.991
437.92	1.005
438.12	0.992
438.33	1.006
438.53	1.009
438.73	1.019
438.94	1.027
439.14	1.033
439.35	1.020
439.55	1.029
439.75	1.026
439.96	1.026
440.16	1.039
440.36	1.047
440.57	1.051
440.77	1.059
440.97	1.057
441.18	1.059
441.38	1.055
441.59	1.070
441.79	1.071
441.99	1.088
442.20	1.082
442.40	1.070
442.60	1.083
442.81	1.075
443.01	1.069
443.21	1.047
443.42	1.028
443.62	1.040
443.83	1.033
444.03	1.040
444.23	1.045
444.44	1.049
444.64	1.050
444.84	1.045
445.05	1.044
445.25	1.035
445.45	1.046
445.66	1.055
445.86	1.045
446.06	1.052
446.27	1.051
446.47	1.041
446.67	1.052
446.88	1.058
447.08	1.065
447.28	1.071
447.49	1.080
447.69	1.081
447.89	1.095
448.10	1.100
448.30	1.104
448.50	1.089
448.71	1.090
448.91	1.091
449.11	1.078
449.32	1.072
449.52	1.076
449.72	1.087
449.93	1.085
450.13	1.075
450.33	1.086
450.53	1.070
450.74	1.088
450.94	1.091
451.14	1.081
451.35	1.106
451.55	1.105
451.75	1.112
451.96	1.106
452.16	1.110
452.36	1.127
452.57	1.136
452.77	1.159
452.97	1.154
453.17	1.152
453.38	1.170
453.58	1.131
453.78	1.131
453.99	1.123
454.19	1.147
454.39	1.149
454.59	1.145
454.80	1.134
455.00	1.128
455.20	1.114
455.41	1.114
455.61	1.107
455.81	1.146
456.01	1.138
456.22	1.144
456.42	1.114
456.62	1.124
456.83	1.116
457.03	1.107
457.23	1.090
457.43	1.107
457.64	1.114
457.84	1.099
458.04	1.092
458.25	1.097
458.45	1.092
458.65	1.099
458.85	1.085
459.06	1.075
459.26	1.077
459.46	1.089
459.66	1.094
459.87	1.098
460.07	1.109
460.27	1.114
460.47	1.108
460.68	1.122
460.88	1.124
461.08	1.129
461.28	1.136
461.49	1.133
461.69	1.149
461.89	1.153
462.09	1.147
462.30	1.145
462.50	1.146
462.70	1.168
462.90	1.148
463.11	1.156
463.31	1.166
463.51	1.157
463.71	1.170
463.92	1.163
464.12	1.158
464.32	1.165
464.52	1.153
464.72	1.167
464.93	1.153
465.13	1.163
465.33	1.157
465.53	1.156
465.74	1.172
465.94	1.167
466.14	1.155
466.34	1.161
466.54	1.148
466.75	1.150
466.95	1.116
467.15	1.123
467.35	1.113
467.56	1.122
467.76	1.127
467.96	1.134
468.16	1.124
468.36	1.131
468.57	1.143
468.77	1.155
468.97	1.166
469.17	1.176
469.37	1.164
469.58	1.174
469.78	1.179
469.98	1.177
470.18	1.169
470.38	1.182
470.59	1.175
470.79	1.169
470.99	1.158
471.19	1.156
471.39	1.173
471.60	1.181
471.80	1.174
472.00	1.165
472.20	1.171
472.40	1.182
472.61	1.180
472.81	1.187
473.01	1.173
473.21	1.177
473.41	1.171
473.61	1.169
473.82	1.187
474.02	1.195
474.22	1.191
474.42	1.192
474.62	1.189
474.82	1.189
475.03	1.213
475.23	1.213
475.43	1.228
475.63	1.234
475.83	1.228
476.03	1.213
476.24	1.198
476.44	1.209
476.64	1.201
476.84	1.197
477.04	1.197
477.24	1.172
477.45	1.184
477.65	1.185
477.85	1.185
478.05	1.181
478.25	1.177
478.45	1.185
478.65	1.184
478.86	1.190
479.06	1.186
479.26	1.199
479.46	1.207
479.66	1.213
479.86	1.202
480.06	1.211
480.27	1.208
480.47	1.212
480.67	1.210
480.87	1.205
481.07	1.200
481.27	1.217
481.47	1.226
481.68	1.224
481.88	1.216
482.08	1.227
482.28	1.237
482.48	1.247
482.68	1.248
482.88	1.251
483.08	1.255
483.29	1.252
483.49	1.242
483.69	1.229
483.89	1.228
484.09	1.232
484.29	1.232
484.49	1.232
484.69	1.230
484.89	1.233
485.10	1.235
485.30	1.239
485.50	1.248
485.70	1.259
485.90	1.270
486.10	1.277
486.30	1.280
486.50	1.274
486.70	1.266
486.90	1.264
487.11	1.258
487.31	1.255
487.51	1.247
487.71	1.241
487.91	1.240
488.11	1.241
488.31	1.247
488.51	1.245
