OOIBase32 Version 2.0.6.5 Data File
++++++++++++++++++++++++++++++++++++
Date: 11-17-2016, 11:09:35
User: Valued Ocean Optics Customer
Spectrometer Serial Number: USB4C01507
Spectrometer Channel: Master
Integration Time (msec): 49
Spectra Averaged: 25
Boxcar Smoothing: 5
Correct for Electrical Dark: Enabled
Time Normalized: Disabled
Dual-beam Reference: Disabled
Reference Channel: Master
Temperature: Not acquired
Spectrometer Type: S4000
ADC Type: USB4000
Number of Pixels in File: 3648
Graph Title: 
>>>>>Begin Spectral Data<<<<<
178.53	1607.516
178.74	2218.414
178.96	96.474
179.18	-6.867
179.39	845.276
179.61	23.321
179.82	144.391
180.04	-120.786
180.25	110.771
180.47	-164.467
180.69	93.710
180.90	114.461
181.12	-397.234
181.33	165.376
181.55	-40.259
181.76	-7354.117
181.98	104.294
182.20	303.494
182.41	27.384
182.63	302.591
182.84	27.679
183.06	13.939
183.27	22.941
183.49	31.410
183.71	36.879
183.92	27.626
184.14	11.512
184.35	23.173
184.57	16.752
184.78	13.337
185.00	16.935
185.21	20.548
185.43	35.041
185.65	25.321
185.86	10.038
186.08	8.980
186.29	13.962
186.51	20.059
186.72	18.228
186.94	16.875
187.15	21.041
187.37	27.706
187.58	28.876
187.80	27.620
188.02	28.252
188.23	23.007
188.45	20.122
188.66	21.880
188.88	28.136
189.09	33.520
189.31	38.225
189.52	34.340
189.74	27.213
189.95	29.010
190.17	28.280
190.38	25.066
190.60	32.998
190.82	37.799
191.03	27.363
191.25	23.293
191.46	14.538
191.68	9.522
191.89	13.637
192.11	20.646
192.32	10.069
192.54	5.868
192.75	19.881
192.97	19.225
193.18	18.029
193.40	24.344
193.61	23.593
193.83	26.577
194.04	25.272
194.26	29.240
194.48	25.533
194.69	30.984
194.91	26.935
195.12	25.137
195.34	24.855
195.55	24.876
195.77	21.658
195.98	23.453
196.20	20.169
196.41	19.978
196.63	19.681
196.84	20.881
197.06	22.011
197.27	32.215
197.49	29.038
197.70	33.129
197.92	31.888
198.13	41.593
198.35	34.066
198.56	30.883
198.78	31.076
198.99	29.122
199.21	28.146
199.42	25.138
199.64	26.131
199.85	22.076
200.07	20.235
200.28	23.240
200.50	12.310
200.71	18.960
200.93	25.427
201.14	27.042
201.36	28.500
201.57	31.757
201.79	32.645
202.00	24.654
202.22	24.397
202.43	23.785
202.65	16.825
202.86	20.869
203.08	19.454
203.29	18.382
203.51	15.592
203.72	10.303
203.94	9.131
204.15	7.142
204.37	11.826
204.58	13.556
204.80	13.160
205.01	17.332
205.22	13.779
205.44	15.766
205.65	12.336
205.87	11.734
206.08	13.772
206.30	12.777
206.51	13.117
206.73	9.416
206.94	7.166
207.16	8.223
207.37	8.517
207.59	10.076
207.80	5.402
208.02	7.255
208.23	8.370
208.45	5.029
208.66	4.150
208.88	3.248
209.09	5.743
209.30	6.421
209.52	3.672
209.73	3.674
209.95	4.024
210.16	6.053
210.38	8.658
210.59	9.540
210.81	9.250
211.02	10.451
211.24	11.156
211.45	8.343
211.66	11.363
211.88	12.879
212.09	12.563
212.31	14.040
212.52	13.609
212.74	9.402
212.95	8.047
213.17	9.154
213.38	8.933
213.60	11.554
213.81	13.404
214.02	11.066
214.24	11.005
214.45	7.579
214.67	6.151
214.88	4.572
215.10	4.455
215.31	4.443
215.53	3.606
215.74	5.649
215.95	5.310
216.17	4.023
216.38	3.590
216.60	2.690
216.81	5.870
217.03	6.507
217.24	7.860
217.45	10.267
217.67	12.149
217.88	13.652
218.10	12.389
218.31	13.605
218.53	14.137
218.74	13.069
218.95	9.758
219.17	7.238
219.38	7.754
219.60	10.334
219.81	10.265
220.03	9.154
220.24	9.514
220.45	8.991
220.67	7.468
220.88	7.601
221.10	7.790
221.31	9.587
221.53	10.209
221.74	8.356
221.95	6.587
222.17	5.070
222.38	4.799
222.60	3.924
222.81	3.560
223.02	3.379
223.24	2.582
223.45	3.457
223.67	3.065
223.88	3.879
224.09	4.619
224.31	4.470
224.52	5.731
224.74	4.639
224.95	5.134
225.16	4.762
225.38	4.068
225.59	4.266
225.81	3.507
226.02	3.416
226.23	2.665
226.45	2.515
226.66	2.333
226.88	2.505
227.09	3.112
227.30	2.787
227.52	3.024
227.73	3.080
227.95	3.047
228.16	3.052
228.37	2.981
228.59	3.090
228.80	3.078
229.02	3.085
229.23	3.063
229.44	3.054
229.66	3.033
229.87	2.995
230.08	2.976
230.30	2.990
230.51	3.068
230.73	3.193
230.94	3.046
231.15	2.934
231.37	2.926
231.58	2.619
231.80	2.714
232.01	2.850
232.22	2.814
232.44	2.840
232.65	2.763
232.86	2.516
233.08	2.403
233.29	2.550
233.51	3.019
233.72	3.006
233.93	3.093
234.15	2.653
234.36	2.555
234.57	2.583
234.79	2.714
235.00	2.767
235.21	3.206
235.43	3.180
235.64	3.095
235.86	2.823
236.07	2.746
236.28	2.554
236.50	2.437
236.71	2.832
236.92	3.131
237.14	3.219
237.35	3.345
237.56	3.337
237.78	3.370
237.99	3.382
238.20	3.420
238.42	3.720
238.63	3.868
238.84	4.369
239.06	4.201
239.27	3.849
239.48	3.749
239.70	3.553
239.91	3.086
240.13	3.086
240.34	2.948
240.55	2.916
240.77	2.772
240.98	2.709
241.19	2.662
241.41	2.372
241.62	2.293
241.83	2.280
242.05	2.352
242.26	2.470
242.47	2.452
242.69	2.549
242.90	2.620
243.11	2.594
243.33	2.633
243.54	2.577
243.75	2.767
243.97	2.814
244.18	2.950
244.39	2.855
244.61	2.686
244.82	2.744
245.03	2.585
245.24	2.343
245.46	2.408
245.67	2.457
245.88	2.441
246.10	2.369
246.31	2.340
246.52	2.235
246.74	2.233
246.95	2.205
247.16	2.180
247.38	2.160
247.59	2.209
247.80	2.198
248.02	2.191
248.23	2.180
248.44	2.251
248.66	2.297
248.87	2.379
249.08	2.461
249.29	2.559
249.51	2.635
249.72	2.777
249.93	2.803
250.15	2.857
250.36	2.656
250.57	2.496
250.79	2.491
251.00	2.513
251.21	2.381
251.42	2.351
251.64	2.313
251.85	2.378
252.06	2.426
252.28	2.386
252.49	2.372
252.70	2.479
252.91	2.590
253.13	2.623
253.34	2.629
253.55	2.716
253.77	2.662
253.98	2.856
254.19	2.729
254.40	2.607
254.62	2.635
254.83	2.547
255.04	2.563
255.26	2.600
255.47	2.276
255.68	2.231
255.89	2.345
256.11	2.356
256.32	2.221
256.53	2.458
256.75	2.535
256.96	2.476
257.17	2.569
257.38	2.662
257.60	2.676
257.81	2.698
258.02	2.575
258.23	2.374
258.45	2.287
258.66	2.307
258.87	2.153
259.09	2.112
259.30	2.128
259.51	2.104
259.72	2.036
259.94	2.000
260.15	1.973
260.36	2.035
260.57	2.065
260.79	2.081
261.00	2.076
261.21	2.104
261.42	2.150
261.64	2.131
261.85	2.092
262.06	2.175
262.27	2.256
262.49	2.370
262.70	2.291
262.91	2.365
263.12	2.494
263.34	2.497
263.55	2.514
263.76	2.449
263.97	2.499
264.19	2.564
264.40	2.525
264.61	2.521
264.82	2.543
265.04	2.656
265.25	2.447
265.46	2.346
265.67	2.366
265.88	2.338
266.10	2.312
266.31	2.276
266.52	2.309
266.73	2.364
266.95	2.356
267.16	2.243
267.37	2.150
267.58	2.227
267.80	2.229
268.01	2.120
268.22	2.111
268.43	2.151
268.64	2.150
268.86	2.112
269.07	1.950
269.28	1.852
269.49	1.869
269.71	1.890
269.92	1.751
270.13	1.868
270.34	1.913
270.55	1.921
270.77	1.960
270.98	1.952
271.19	2.024
271.40	2.077
271.61	2.061
271.83	2.098
272.04	2.027
272.25	2.117
272.46	1.952
272.68	1.969
272.89	1.965
273.10	1.906
273.31	1.865
273.52	1.820
273.74	1.810
273.95	1.816
274.16	1.845
274.37	1.816
274.58	1.834
274.80	1.935
275.01	1.912
275.22	1.956
275.43	2.054
275.64	2.192
275.86	2.231
276.07	2.151
276.28	2.259
276.49	2.241
276.70	2.244
276.91	2.214
277.13	2.131
277.34	2.178
277.55	2.214
277.76	2.141
277.97	2.063
278.19	2.089
278.40	2.205
278.61	2.092
278.82	2.092
279.03	2.113
279.24	2.066
279.46	2.160
279.67	2.222
279.88	1.972
280.09	1.944
280.30	2.013
280.52	1.913
280.73	1.931
280.94	2.022
281.15	1.983
281.36	2.107
281.57	2.128
281.79	2.158
282.00	2.153
282.21	2.225
282.42	2.235
282.63	2.222
282.84	2.201
283.06	2.126
283.27	2.157
283.48	2.100
283.69	1.972
283.90	1.948
284.11	1.859
284.32	1.829
284.54	1.890
284.75	1.804
284.96	1.783
285.17	1.853
285.38	1.901
285.59	1.883
285.81	1.978
286.02	2.076
286.23	2.063
286.44	2.151
286.65	2.212
286.86	2.179
287.07	2.206
287.29	2.212
287.50	2.173
287.71	2.204
287.92	2.173
288.13	2.115
288.34	2.020
288.55	2.044
288.77	2.011
288.98	1.895
289.19	1.901
289.40	1.970
289.61	1.990
289.82	2.008
290.03	1.946
290.24	1.994
290.46	2.027
290.67	2.134
290.88	2.136
291.09	2.143
291.30	2.210
291.51	2.319
291.72	2.411
291.93	2.468
292.15	2.426
292.36	2.588
292.57	2.595
292.78	2.541
292.99	2.450
293.20	2.675
293.41	2.653
293.62	2.633
293.84	2.614
294.05	2.574
294.26	2.451
294.47	2.541
294.68	2.446
294.89	2.522
295.10	2.574
295.31	2.609
295.52	2.496
295.73	2.434
295.95	2.353
296.16	2.342
296.37	2.369
296.58	2.445
296.79	2.423
297.00	2.417
297.21	2.349
297.42	2.275
297.63	2.264
297.84	2.230
298.06	2.220
298.27	2.254
298.48	2.287
298.69	2.190
298.90	2.142
299.11	2.197
299.32	2.178
299.53	2.098
299.74	2.182
299.95	2.174
300.16	2.199
300.38	2.245
300.59	2.178
300.80	2.073
301.01	2.092
301.22	2.035
301.43	1.898
301.64	1.913
301.85	1.917
302.06	1.886
302.27	1.893
302.48	1.894
302.69	1.870
302.91	1.978
303.12	2.034
303.33	2.074
303.54	2.189
303.75	2.174
303.96	2.209
304.17	2.259
304.38	2.275
304.59	2.281
304.80	2.292
305.01	2.291
305.22	2.228
305.43	2.207
305.64	2.163
305.85	2.073
306.06	2.187
306.28	2.146
306.49	2.168
306.70	2.148
306.91	2.087
307.12	2.096
307.33	2.056
307.54	2.137
307.75	2.138
307.96	2.195
308.17	2.253
308.38	2.215
308.59	2.214
308.80	2.165
309.01	2.137
309.22	2.174
309.43	2.100
309.64	2.133
309.85	2.063
310.06	2.102
310.27	2.101
310.48	2.047
310.70	2.082
310.91	2.114
311.12	2.098
311.33	2.104
311.54	2.038
311.75	2.086
311.96	2.140
312.17	2.169
312.38	2.143
312.59	2.121
312.80	2.141
313.01	2.109
313.22	2.150
313.43	2.203
313.64	2.200
313.85	2.268
314.06	2.252
314.27	2.224
314.48	2.293
314.69	2.300
314.90	2.355
315.11	2.331
315.32	2.353
315.53	2.366
315.74	2.273
315.95	2.310
316.16	2.306
316.37	2.243
316.58	2.252
316.79	2.144
317.00	2.176
317.21	2.107
317.42	2.085
317.63	2.041
317.84	1.902
318.05	1.938
318.26	1.942
318.47	1.920
318.68	1.988
318.89	1.992
319.10	2.071
319.31	2.034
319.52	2.110
319.73	2.185
319.94	2.189
320.15	2.204
320.36	2.221
320.57	2.204
320.78	2.224
320.99	2.192
321.20	2.238
321.41	2.172
321.62	2.175
321.83	2.187
322.04	2.183
322.25	2.181
322.46	2.184
322.67	2.283
322.88	2.239
323.09	2.272
323.30	2.263
323.51	2.168
323.72	2.192
323.93	2.194
324.14	2.189
324.35	2.185
324.56	2.250
324.77	2.242
324.98	2.182
325.19	2.257
325.40	2.307
325.61	2.349
325.82	2.431
326.03	2.478
326.24	2.520
326.45	2.517
326.65	2.497
326.86	2.480
327.07	2.552
327.28	2.552
327.49	2.550
327.70	2.455
327.91	2.495
328.12	2.434
328.33	2.401
328.54	2.355
328.75	2.371
328.96	2.441
329.17	2.419
329.38	2.359
329.59	2.394
329.80	2.389
330.01	2.466
330.22	2.378
330.43	2.387
330.64	2.432
330.85	2.498
331.05	2.459
331.26	2.376
331.47	2.357
331.68	2.423
331.89	2.422
332.10	2.429
332.31	2.442
332.52	2.465
332.73	2.478
332.94	2.437
333.15	2.440
333.36	2.491
333.57	2.516
333.78	2.558
333.99	2.561
334.19	2.539
334.40	2.563
334.61	2.603
334.82	2.664
335.03	2.597
335.24	2.578
335.45	2.543
335.66	2.527
335.87	2.562
336.08	2.584
336.29	2.608
336.50	2.613
336.71	2.646
336.91	2.593
337.12	2.504
337.33	2.578
337.54	2.645
337.75	2.655
337.96	2.608
338.17	2.656
338.38	2.633
338.59	2.641
338.80	2.611
339.01	2.586
339.21	2.588
339.42	2.682
339.63	2.682
339.84	2.692
340.05	2.724
340.26	2.737
340.47	2.743
340.68	2.771
340.89	2.726
341.10	2.749
341.30	2.744
341.51	2.750
341.72	2.743
341.93	2.767
342.14	2.717
342.35	2.738
342.56	2.733
342.77	2.734
342.98	2.709
343.18	2.714
343.39	2.759
343.60	2.733
343.81	2.772
344.02	2.797
344.23	2.800
344.44	2.786
344.65	2.765
344.85	2.751
345.06	2.749
345.27	2.754
345.48	2.716
345.69	2.748
345.90	2.814
346.11	2.822
346.32	2.790
346.52	2.772
346.73	2.809
346.94	2.809
347.15	2.885
347.36	2.854
347.57	2.894
347.78	2.987
347.98	2.947
348.19	2.903
348.40	2.870
348.61	2.922
348.82	2.950
349.03	2.958
349.24	2.958
349.44	2.964
349.65	2.977
349.86	2.940
350.07	2.968
350.28	2.984
350.49	2.989
350.70	2.981
350.90	2.963
351.11	2.952
351.32	2.963
351.53	2.962
351.74	2.975
351.95	2.964
352.15	3.002
352.36	2.972
352.57	3.014
352.78	3.089
352.99	3.134
353.20	3.147
353.40	3.140
353.61	3.123
353.82	3.121
354.03	3.094
354.24	3.117
354.45	3.163
354.65	3.169
354.86	3.150
355.07	3.124
355.28	3.174
355.49	3.161
355.70	3.134
355.90	3.153
356.11	3.158
356.32	3.148
356.53	3.134
356.74	3.097
356.94	3.071
357.15	3.084
357.36	3.100
357.57	3.052
357.78	3.053
357.99	3.133
358.19	3.142
358.40	3.178
358.61	3.244
358.82	3.332
359.03	3.385
359.23	3.396
359.44	3.404
359.65	3.348
359.86	3.372
360.07	3.430
360.27	3.465
360.48	3.497
360.69	3.537
360.90	3.512
361.11	3.561
361.31	3.515
361.52	3.545
361.73	3.549
361.94	3.622
362.15	3.616
362.35	3.579
362.56	3.547
362.77	3.573
362.98	3.569
363.18	3.588
363.39	3.470
363.60	3.525
363.81	3.548
364.02	3.561
364.22	3.584
364.43	3.574
364.64	3.608
364.85	3.581
365.05	3.561
365.26	3.530
365.47	3.555
365.68	3.603
365.89	3.597
366.09	3.605
366.30	3.617
366.51	3.621
366.72	3.621
366.92	3.632
367.13	3.694
367.34	3.681
367.55	3.677
367.75	3.638
367.96	3.640
368.17	3.650
368.38	3.657
368.58	3.651
368.79	3.604
369.00	3.651
369.21	3.663
369.41	3.667
369.62	3.655
369.83	3.687
370.04	3.713
370.24	3.729
370.45	3.752
370.66	3.735
370.87	3.708
371.07	3.701
371.28	3.679
371.49	3.656
371.70	3.615
371.90	3.660
372.11	3.650
372.32	3.674
372.53	3.698
372.73	3.684
372.94	3.652
373.15	3.717
373.36	3.747
373.56	3.819
373.77	3.844
373.98	3.902
374.19	3.926
374.39	3.977
374.60	4.021
374.81	4.015
375.01	4.005
375.22	4.036
375.43	4.019
375.64	4.056
375.84	4.017
376.05	4.001
376.26	4.012
376.46	3.970
376.67	3.941
376.88	3.915
377.09	3.901
377.29	3.927
377.50	3.935
377.71	3.935
377.91	3.942
378.12	3.933
378.33	3.972
378.54	3.957
378.74	3.961
378.95	3.989
379.16	3.996
379.36	4.023
379.57	4.019
379.78	4.038
379.99	4.053
380.19	4.000
380.40	3.995
380.61	3.981
380.81	3.976
381.02	4.031
381.23	4.038
381.43	4.049
381.64	4.029
381.85	4.014
382.05	4.037
382.26	4.028
382.47	4.063
382.67	4.089
382.88	4.085
383.09	4.131
383.30	4.130
383.50	4.131
383.71	4.108
383.92	4.134
384.12	4.152
384.33	4.120
384.54	4.144
384.74	4.183
384.95	4.217
385.16	4.257
385.36	4.239
385.57	4.253
385.78	4.244
385.98	4.270
386.19	4.276
386.40	4.289
386.60	4.297
386.81	4.304
387.02	4.289
387.22	4.293
387.43	4.278
387.64	4.270
387.84	4.260
388.05	4.299
388.26	4.308
388.46	4.312
388.67	4.346
388.88	4.363
389.08	4.390
389.29	4.395
389.49	4.378
389.70	4.409
389.91	4.424
390.11	4.419
390.32	4.414
390.53	4.418
390.73	4.437
390.94	4.437
391.15	4.459
391.35	4.450
391.56	4.461
391.77	4.482
391.97	4.480
392.18	4.502
392.38	4.511
392.59	4.521
392.80	4.543
393.00	4.522
393.21	4.551
393.42	4.556
393.62	4.583
393.83	4.602
394.04	4.595
394.24	4.593
394.45	4.597
394.65	4.647
394.86	4.666
395.07	4.652
395.27	4.682
395.48	4.639
395.68	4.656
395.89	4.645
396.10	4.647
396.30	4.623
396.51	4.659
396.72	4.664
396.92	4.631
397.13	4.614
397.33	4.644
397.54	4.648
397.75	4.667
397.95	4.663
398.16	4.659
398.36	4.671
398.57	4.732
398.78	4.710
398.98	4.736
399.19	4.767
399.39	4.787
399.60	4.775
399.81	4.793
400.01	4.820
400.22	4.855
400.42	4.895
400.63	4.864
400.84	4.884
401.04	4.918
401.25	4.918
401.45	4.923
401.66	4.923
401.86	4.936
402.07	4.962
402.28	4.973
402.48	4.953
402.69	4.941
402.89	4.998
403.10	4.992
403.31	5.001
403.51	4.998
403.72	5.001
403.92	5.024
404.13	5.049
404.33	5.049
404.54	5.058
404.75	5.084
404.95	5.120
405.16	5.114
405.36	5.134
405.57	5.118
405.77	5.154
405.98	5.161
406.18	5.166
406.39	5.158
406.60	5.145
406.80	5.151
407.01	5.144
407.21	5.127
407.42	5.150
407.62	5.146
407.83	5.169
408.03	5.144
408.24	5.162
408.45	5.155
408.65	5.177
408.86	5.216
409.06	5.253
409.27	5.260
409.47	5.261
409.68	5.244
409.88	5.280
410.09	5.303
410.29	5.316
410.50	5.334
410.71	5.384
410.91	5.397
411.12	5.405
411.32	5.380
411.53	5.426
411.73	5.448
411.94	5.475
412.14	5.488
412.35	5.482
412.55	5.513
412.76	5.511
412.96	5.514
413.17	5.514
413.37	5.513
413.58	5.558
413.78	5.550
413.99	5.574
414.19	5.620
414.40	5.619
414.61	5.628
414.81	5.636
415.02	5.658
415.22	5.655
415.43	5.683
415.63	5.713
415.84	5.687
416.04	5.696
416.25	5.691
416.45	5.681
416.66	5.709
416.86	5.744
417.07	5.751
417.27	5.754
417.48	5.756
417.68	5.766
417.89	5.782
418.09	5.802
418.30	5.811
418.50	5.800
418.71	5.803
418.91	5.802
419.12	5.786
419.32	5.795
419.53	5.809
419.73	5.832
419.94	5.841
420.14	5.841
420.34	5.845
420.55	5.844
420.75	5.875
420.96	5.895
421.16	5.883
421.37	5.899
421.57	5.929
421.78	5.938
421.98	5.944
422.19	5.954
422.39	5.976
422.60	6.019
422.80	6.051
423.01	6.058
423.21	6.073
423.42	6.108
423.62	6.117
423.83	6.098
424.03	6.108
424.23	6.120
424.44	6.121
424.64	6.126
424.85	6.113
425.05	6.125
425.26	6.147
425.46	6.160
425.67	6.159
425.87	6.193
426.08	6.245
426.28	6.252
426.48	6.271
426.69	6.295
426.89	6.326
427.10	6.373
427.30	6.409
427.51	6.428
427.71	6.437
427.92	6.450
428.12	6.452
428.32	6.430
428.53	6.447
428.73	6.479
428.94	6.503
429.14	6.486
429.35	6.491
429.55	6.481
429.76	6.525
429.96	6.535
430.16	6.589
430.37	6.610
430.57	6.642
430.78	6.685
430.98	6.695
431.19	6.720
431.39	6.737
431.59	6.727
431.80	6.749
432.00	6.693
432.21	6.722
432.41	6.703
432.61	6.704
432.82	6.702
433.02	6.708
433.23	6.713
433.43	6.715
433.64	6.733
433.84	6.765
434.04	6.777
434.25	6.826
434.45	6.830
434.66	6.860
434.86	6.880
435.06	6.913
435.27	6.944
435.47	6.968
435.68	6.982
435.88	7.017
436.08	7.034
436.29	7.036
436.49	7.060
436.70	7.063
436.90	7.083
437.10	7.101
437.31	7.100
437.51	7.092
437.71	7.120
437.92	7.136
438.12	7.139
438.33	7.143
438.53	7.152
438.73	7.170
438.94	7.192
439.14	7.199
439.35	7.223
439.55	7.246
439.75	7.247
439.96	7.246
440.16	7.265
440.36	7.271
440.57	7.273
440.77	7.280
440.97	7.282
441.18	7.303
441.38	7.316
441.59	7.318
441.79	7.331
441.99	7.370
442.20	7.386
442.40	7.397
442.60	7.424
442.81	7.455
443.01	7.495
443.21	7.524
443.42	7.529
443.62	7.534
443.83	7.552
444.03	7.583
444.23	7.601
444.44	7.612
444.64	7.613
444.84	7.618
445.05	7.627
445.25	7.636
445.45	7.641
445.66	7.656
445.86	7.671
446.06	7.682
446.27	7.683
446.47	7.676
446.67	7.694
446.88	7.718
447.08	7.737
447.28	7.768
447.49	7.785
447.69	7.800
447.89	7.817
448.10	7.850
448.30	7.890
448.50	7.905
448.71	7.936
448.91	7.943
449.11	7.951
449.32	7.985
449.52	8.000
449.72	8.022
449.93	8.021
450.13	8.036
450.33	8.039
450.53	8.025
450.74	8.050
450.94	8.062
451.14	8.104
451.35	8.142
451.55	8.145
451.75	8.142
451.96	8.144
452.16	8.177
452.36	8.192
452.57	8.218
452.77	8.252
452.97	8.250
453.17	8.279
453.38	8.299
453.58	8.301
453.78	8.306
453.99	8.351
454.19	8.385
454.39	8.411
454.59	8.432
454.80	8.444
455.00	8.458
455.20	8.493
455.41	8.514
455.61	8.520
455.81	8.562
456.01	8.588
456.22	8.589
456.42	8.608
456.62	8.635
456.83	8.674
457.03	8.690
457.23	8.683
457.43	8.700
457.64	8.722
457.84	8.723
458.04	8.739
458.25	8.760
458.45	8.778
458.65	8.781
458.85	8.779
459.06	8.759
459.26	8.761
459.46	8.774
459.66	8.786
459.87	8.786
460.07	8.814
460.27	8.812
460.47	8.823
460.68	8.841
460.88	8.852
461.08	8.870
461.28	8.910
461.49	8.941
461.69	8.977
461.89	9.010
462.09	9.043
462.30	9.060
462.50	9.102
462.70	9.130
462.90	9.139
463.11	9.190
463.31	9.222
463.51	9.235
463.71	9.256
463.92	9.266
464.12	9.276
464.32	9.296
464.52	9.293
464.72	9.303
464.93	9.304
465.13	9.319
465.33	9.308
465.53	9.316
465.74	9.342
465.94	9.350
466.14	9.369
466.34	9.376
466.54	9.387
466.75	9.400
466.95	9.401
467.15	9.434
467.35	9.456
467.56	9.476
467.76	9.506
467.96	9.512
468.16	9.533
468.36	9.548
468.57	9.590
468.77	9.603
468.97	9.631
469.17	9.650
469.37	9.652
469.58	9.668
469.78	9.694
469.98	9.703
470.18	9.719
470.38	9.742
470.59	9.766
470.79	9.773
470.99	9.804
471.19	9.833
471.39	9.859
471.60	9.886
471.80	9.891
472.00	9.904
472.20	9.939
472.40	9.976
472.61	10.001
472.81	10.021
473.01	10.033
473.21	10.041
473.41	10.046
473.61	10.077
473.82	10.124
474.02	10.149
474.22	10.184
474.42	10.186
474.62	10.188
474.82	10.223
475.03	10.266
475.23	10.298
475.43	10.332
475.63	10.367
475.83	10.383
476.03	10.366
476.24	10.379
476.44	10.388
476.64	10.402
476.84	10.434
477.04	10.424
477.24	10.428
477.45	10.448
477.65	10.468
477.85	10.474
478.05	10.484
478.25	10.515
478.45	10.538
478.65	10.553
478.86	10.575
479.06	10.589
479.26	10.623
479.46	10.643
479.66	10.651
479.86	10.651
480.06	10.682
480.27	10.688
480.47	10.697
480.67	10.718
480.87	10.730
481.07	10.753
481.27	10.778
481.47	10.801
481.68	10.809
481.88	10.835
482.08	10.900
482.28	10.971
482.48	11.046
482.68	11.119
482.88	11.211
483.08	11.378
483.29	11.452
483.49	11.403
483.69	11.340
483.89	11.316
484.09	11.305
484.29	11.290
484.49	11.275
484.69	11.263
484.89	11.245
485.10	11.204
485.30	11.073
485.50	10.990
485.70	11.039
485.90	11.135
486.10	11.211
486.30	11.266
486.50	11.315
486.70	11.349
486.90	11.377
487.11	11.398
