OOIBase32 Version 2.0.6.5 Data File
++++++++++++++++++++++++++++++++++++
Date: 11-17-2016, 11:08:14
User: Valued Ocean Optics Customer
Spectrometer Serial Number: USB4C01507
Spectrometer Channel: Master
Integration Time (msec): 49
Spectra Averaged: 25
Boxcar Smoothing: 5
Correct for Electrical Dark: Enabled
Time Normalized: Disabled
Dual-beam Reference: Disabled
Reference Channel: Master
Temperature: Not acquired
Spectrometer Type: S4000
ADC Type: USB4000
Number of Pixels in File: 3648
Graph Title: 
>>>>>Begin Spectral Data<<<<<
178.53	1598.786
178.74	2069.081
178.96	15.444
179.18	15.307
179.39	732.604
179.61	-119.503
179.82	57.895
180.04	-59.871
180.25	137.820
180.47	-205.473
180.69	158.439
180.90	539.944
181.12	182.392
181.33	219.631
181.55	-4.529
181.76	-22649.676
181.98	102.174
182.20	519.102
182.41	-17.188
182.63	-54.600
182.84	15.239
183.06	-5.076
183.27	-9.120
183.49	-15.136
183.71	-16.231
183.92	-20.014
184.14	-33.647
184.35	-34.559
184.57	-36.448
184.78	-32.066
185.00	-25.420
185.21	-34.164
185.43	-23.684
185.65	-6.781
185.86	-13.619
186.08	-9.617
186.29	-8.220
186.51	5.775
186.72	-1.991
186.94	-1.516
187.15	2.095
187.37	-0.215
187.58	10.065
187.80	2.333
188.02	4.431
188.23	8.431
188.45	15.165
188.66	19.349
188.88	19.844
189.09	24.130
189.31	26.851
189.52	20.640
189.74	14.995
189.95	13.347
190.17	15.815
190.38	10.851
190.60	8.149
190.82	4.043
191.03	6.647
191.25	9.780
191.46	3.880
191.68	7.464
191.89	5.233
192.11	15.365
192.32	18.941
192.54	18.493
192.75	23.063
192.97	23.897
193.18	25.056
193.40	24.143
193.61	22.297
193.83	26.043
194.04	20.970
194.26	27.707
194.48	28.408
194.69	26.463
194.91	20.087
195.12	17.869
195.34	20.466
195.55	20.261
195.77	18.603
195.98	12.613
196.20	8.867
196.41	3.696
196.63	5.811
196.84	1.588
197.06	1.982
197.27	5.794
197.49	3.791
197.70	2.912
197.92	-6.827
198.13	0.946
198.35	3.547
198.56	2.202
198.78	13.347
198.99	8.361
199.21	11.224
199.42	10.240
199.64	13.574
199.85	12.087
200.07	14.894
200.28	21.495
200.50	13.365
200.71	12.784
200.93	15.052
201.14	12.452
201.36	9.820
201.57	6.874
201.79	7.082
202.00	5.475
202.22	5.803
202.43	5.599
202.65	1.445
202.86	5.878
203.08	7.654
203.29	5.832
203.51	-0.864
203.72	1.362
203.94	7.587
204.15	5.865
204.37	7.607
204.58	9.661
204.80	6.904
205.01	11.986
205.22	11.104
205.44	10.474
205.65	9.333
205.87	12.018
206.08	15.236
206.30	9.476
206.51	8.699
206.73	6.443
206.94	5.207
207.16	5.372
207.37	2.302
207.59	1.244
207.80	-0.534
208.02	4.644
208.23	8.030
208.45	2.827
208.66	2.994
208.88	5.548
209.09	6.223
209.30	6.922
209.52	7.771
209.73	9.323
209.95	12.592
210.16	12.537
210.38	10.304
210.59	6.386
210.81	8.252
211.02	9.670
211.24	8.691
211.45	7.250
211.66	8.431
211.88	6.122
212.09	5.328
212.31	3.360
212.52	4.210
212.74	3.430
212.95	4.178
213.17	3.131
213.38	4.308
213.60	5.701
213.81	9.103
214.02	8.145
214.24	8.892
214.45	2.845
214.67	3.000
214.88	2.073
215.10	3.538
215.31	2.758
215.53	2.419
215.74	1.149
215.95	0.207
216.17	-2.682
216.38	-3.990
216.60	-5.016
216.81	-1.043
217.03	-0.773
217.24	0.309
217.45	0.545
217.67	-0.988
217.88	0.633
218.10	1.203
218.31	0.879
218.53	2.822
218.74	2.562
218.95	0.521
219.17	-2.159
219.38	-2.437
219.60	-0.870
219.81	0.058
220.03	1.346
220.24	1.606
220.45	0.373
220.67	0.357
220.88	0.705
221.10	2.105
221.31	4.123
221.53	4.862
221.74	3.302
221.95	2.698
222.17	0.426
222.38	1.284
222.60	1.479
222.81	1.514
223.02	1.793
223.24	1.441
223.45	0.965
223.67	0.227
223.88	0.705
224.09	2.332
224.31	2.776
224.52	4.433
224.74	3.085
224.95	3.226
225.16	3.473
225.38	2.982
225.59	2.891
225.81	2.411
226.02	2.617
226.23	2.257
226.45	1.904
226.66	1.242
226.88	1.215
227.09	1.722
227.30	1.460
227.52	1.690
227.73	1.687
227.95	1.724
228.16	1.878
228.37	1.892
228.59	2.008
228.80	2.088
229.02	2.138
229.23	2.085
229.44	2.089
229.66	2.123
229.87	2.086
230.08	2.163
230.30	2.122
230.51	2.053
230.73	2.115
230.94	2.023
231.15	1.794
231.37	1.762
231.58	1.667
231.80	1.556
232.01	1.647
232.22	1.536
232.44	1.630
232.65	1.667
232.86	1.457
233.08	1.315
233.29	1.226
233.51	1.455
233.72	1.522
233.93	1.552
234.15	1.669
234.36	1.601
234.57	1.795
234.79	1.775
235.00	1.921
235.21	2.541
235.43	2.698
235.64	2.688
235.86	2.560
236.07	2.540
236.28	2.573
236.50	2.483
236.71	2.670
236.92	2.696
237.14	2.649
237.35	2.427
237.56	2.247
237.78	2.178
237.99	2.202
238.20	2.236
238.42	2.438
238.63	2.406
238.84	2.696
239.06	2.454
239.27	2.109
239.48	2.182
239.70	2.167
239.91	1.750
240.13	1.761
240.34	1.896
240.55	1.923
240.77	1.795
240.98	1.660
241.19	1.617
241.41	1.496
241.62	1.551
241.83	1.481
242.05	1.457
242.26	1.545
242.47	1.485
242.69	1.465
242.90	1.470
243.11	1.485
243.33	1.496
243.54	1.432
243.75	1.536
243.97	1.483
244.18	1.525
244.39	1.633
244.61	1.472
244.82	1.628
245.03	1.626
245.24	1.541
245.46	1.636
245.67	1.848
245.88	1.871
246.10	1.873
246.31	1.860
246.52	1.827
246.74	1.774
246.95	1.790
247.16	1.776
247.38	1.754
247.59	1.781
247.80	1.761
248.02	1.746
248.23	1.694
248.44	1.690
248.66	1.661
248.87	1.700
249.08	1.702
249.29	1.791
249.51	1.724
249.72	1.876
249.93	1.932
250.15	2.046
250.36	1.836
250.57	1.971
250.79	2.036
251.00	2.195
251.21	2.146
251.42	2.225
251.64	2.117
251.85	2.256
252.06	2.253
252.28	2.141
252.49	2.077
252.70	2.236
252.91	2.188
253.13	2.132
253.34	2.161
253.55	2.179
253.77	2.143
253.98	2.231
254.19	2.000
254.40	1.733
254.62	1.835
254.83	1.588
255.04	1.411
255.26	1.535
255.47	1.366
255.68	1.394
255.89	1.446
256.11	1.450
256.32	1.284
256.53	1.503
256.75	1.577
256.96	1.579
257.17	1.862
257.38	2.013
257.60	1.985
257.81	2.094
258.02	1.986
258.23	1.825
258.45	1.705
258.66	1.829
258.87	1.672
259.09	1.641
259.30	1.648
259.51	1.558
259.72	1.565
259.94	1.552
260.15	1.496
260.36	1.553
260.57	1.597
260.79	1.627
261.00	1.566
261.21	1.630
261.42	1.696
261.64	1.666
261.85	1.705
262.06	1.614
262.27	1.718
262.49	1.921
262.70	1.746
262.91	1.768
263.12	1.697
263.34	1.784
263.55	1.742
263.76	1.640
263.97	1.725
264.19	1.852
264.40	1.941
264.61	1.770
264.82	1.629
265.04	1.730
265.25	1.546
265.46	1.613
265.67	1.554
265.88	1.495
266.10	1.384
266.31	1.319
266.52	1.225
266.73	1.296
266.95	1.345
267.16	1.412
267.37	1.338
267.58	1.392
267.80	1.443
268.01	1.397
268.22	1.375
268.43	1.502
268.64	1.567
268.86	1.622
269.07	1.527
269.28	1.433
269.49	1.483
269.71	1.539
269.92	1.443
270.13	1.524
270.34	1.532
270.55	1.677
270.77	1.720
270.98	1.655
271.19	1.680
271.40	1.621
271.61	1.641
271.83	1.544
272.04	1.544
272.25	1.666
272.46	1.568
272.68	1.624
272.89	1.604
273.10	1.551
273.31	1.555
273.52	1.568
273.74	1.531
273.95	1.454
274.16	1.443
274.37	1.521
274.58	1.455
274.80	1.473
275.01	1.495
275.22	1.520
275.43	1.621
275.64	1.699
275.86	1.717
276.07	1.820
276.28	2.003
276.49	2.121
276.70	1.949
276.91	1.950
277.13	2.010
277.34	2.040
277.55	2.005
277.76	1.838
277.97	1.765
278.19	1.764
278.40	1.794
278.61	1.741
278.82	1.737
279.03	1.810
279.24	1.733
279.46	1.692
279.67	1.606
279.88	1.511
280.09	1.628
280.30	1.652
280.52	1.525
280.73	1.521
280.94	1.525
281.15	1.446
281.36	1.507
281.57	1.664
281.79	1.684
282.00	1.715
282.21	1.733
282.42	1.726
282.63	1.738
282.84	1.770
283.06	1.716
283.27	1.754
283.48	1.765
283.69	1.597
283.90	1.558
284.11	1.525
284.32	1.510
284.54	1.527
284.75	1.480
284.96	1.414
285.17	1.498
285.38	1.557
285.59	1.522
285.81	1.568
286.02	1.713
286.23	1.701
286.44	1.780
286.65	1.774
286.86	1.784
287.07	1.813
287.29	1.801
287.50	1.759
287.71	1.683
287.92	1.787
288.13	1.700
288.34	1.617
288.55	1.623
288.77	1.569
288.98	1.517
289.19	1.566
289.40	1.608
289.61	1.736
289.82	1.706
290.03	1.636
290.24	1.553
290.46	1.608
290.67	1.668
290.88	1.693
291.09	1.663
291.30	1.711
291.51	1.686
291.72	1.677
291.93	1.581
292.15	1.638
292.36	1.843
292.57	1.808
292.78	1.740
292.99	1.636
293.20	1.680
293.41	1.573
293.62	1.565
293.84	1.535
294.05	1.482
294.26	1.455
294.47	1.433
294.68	1.339
294.89	1.391
295.10	1.426
295.31	1.489
295.52	1.445
295.73	1.493
295.95	1.504
296.16	1.502
296.37	1.604
296.58	1.633
296.79	1.608
297.00	1.636
297.21	1.559
297.42	1.532
297.63	1.485
297.84	1.423
298.06	1.438
298.27	1.455
298.48	1.497
298.69	1.377
298.90	1.384
299.11	1.428
299.32	1.420
299.53	1.544
299.74	1.536
299.95	1.660
300.16	1.655
300.38	1.696
300.59	1.637
300.80	1.593
301.01	1.601
301.22	1.547
301.43	1.511
301.64	1.489
301.85	1.438
302.06	1.473
302.27	1.386
302.48	1.480
302.69	1.455
302.91	1.420
303.12	1.476
303.33	1.518
303.54	1.599
303.75	1.497
303.96	1.564
304.17	1.537
304.38	1.482
304.59	1.533
304.80	1.511
305.01	1.432
305.22	1.454
305.43	1.350
305.64	1.314
305.85	1.194
306.06	1.340
306.28	1.277
306.49	1.309
306.70	1.308
306.91	1.202
307.12	1.219
307.33	1.163
307.54	1.207
307.75	1.235
307.96	1.189
308.17	1.252
308.38	1.215
308.59	1.229
308.80	1.202
309.01	1.203
309.22	1.282
309.43	1.249
309.64	1.380
309.85	1.374
310.06	1.341
310.27	1.443
310.48	1.438
310.70	1.424
310.91	1.458
311.12	1.433
311.33	1.438
311.54	1.342
311.75	1.355
311.96	1.348
312.17	1.305
312.38	1.334
312.59	1.270
312.80	1.245
313.01	1.190
313.22	1.181
313.43	1.161
313.64	1.088
313.85	1.136
314.06	1.150
314.27	1.126
314.48	1.194
314.69	1.222
314.90	1.253
315.11	1.387
315.32	1.421
315.53	1.349
315.74	1.365
315.95	1.433
316.16	1.421
316.37	1.312
316.58	1.223
316.79	1.191
317.00	1.201
317.21	1.147
317.42	0.977
317.63	0.991
317.84	0.859
318.05	0.799
318.26	0.794
318.47	0.793
318.68	0.923
318.89	0.990
319.10	1.010
319.31	0.972
319.52	0.974
319.73	1.012
319.94	0.999
320.15	1.119
320.36	1.266
320.57	1.250
320.78	1.221
320.99	1.055
321.20	1.056
321.41	0.992
321.62	1.004
321.83	1.066
322.04	1.029
322.25	1.041
322.46	1.026
322.67	0.974
322.88	0.985
323.09	1.015
323.30	1.049
323.51	0.986
323.72	1.004
323.93	0.970
324.14	0.956
324.35	0.964
324.56	0.954
324.77	0.955
324.98	0.884
325.19	0.804
325.40	0.781
325.61	0.835
325.82	0.883
326.03	0.901
326.24	0.882
326.45	0.814
326.65	0.872
326.86	0.869
327.07	0.906
327.28	0.986
327.49	1.078
327.70	1.078
327.91	1.060
328.12	1.109
328.33	1.080
328.54	1.128
328.75	1.211
328.96	1.229
329.17	1.211
329.38	1.107
329.59	1.079
329.80	1.110
330.01	1.152
330.22	1.105
330.43	1.053
330.64	1.101
330.85	1.138
331.05	1.043
331.26	1.010
331.47	0.956
331.68	1.012
331.89	1.010
332.10	0.947
332.31	0.945
332.52	1.002
332.73	0.971
332.94	0.958
333.15	0.911
333.36	0.996
333.57	0.928
333.78	0.946
333.99	0.939
334.19	0.955
334.40	0.972
334.61	1.007
334.82	1.042
335.03	1.049
335.24	1.001
335.45	1.047
335.66	1.006
335.87	1.036
336.08	1.063
336.29	1.143
336.50	1.106
336.71	1.143
336.91	1.100
337.12	0.989
337.33	1.007
337.54	1.092
337.75	1.071
337.96	1.055
338.17	1.071
338.38	1.102
338.59	1.105
338.80	1.062
339.01	1.023
339.21	1.012
339.42	1.050
339.63	1.038
339.84	1.034
340.05	1.003
340.26	0.941
340.47	0.936
340.68	0.930
340.89	0.835
341.10	0.857
341.30	0.888
341.51	0.871
341.72	0.953
341.93	0.962
342.14	0.870
342.35	0.865
342.56	0.930
342.77	0.986
342.98	0.939
343.18	0.952
343.39	0.967
343.60	0.922
343.81	0.986
344.02	0.965
344.23	0.956
344.44	0.977
344.65	0.946
344.85	0.907
345.06	0.902
345.27	0.975
345.48	0.921
345.69	0.969
345.90	1.027
346.11	1.004
346.32	0.969
346.52	0.952
346.73	0.972
346.94	0.981
347.15	0.997
347.36	0.942
347.57	0.894
347.78	0.942
347.98	0.922
348.19	0.883
348.40	0.873
348.61	0.889
348.82	0.950
349.03	0.943
349.24	0.961
349.44	0.981
349.65	1.011
349.86	1.021
350.07	1.053
350.28	1.050
350.49	1.060
350.70	1.030
350.90	0.991
351.11	0.935
351.32	0.935
351.53	0.954
351.74	0.944
351.95	0.883
352.15	0.919
352.36	0.876
352.57	0.861
352.78	0.903
352.99	0.922
353.20	0.978
353.40	1.013
353.61	0.969
353.82	0.925
354.03	0.991
354.24	1.010
354.45	0.965
354.65	1.007
354.86	1.021
355.07	0.976
355.28	0.981
355.49	0.966
355.70	0.963
355.90	1.013
356.11	1.047
356.32	1.023
356.53	1.033
356.74	1.004
356.94	0.957
357.15	0.962
357.36	0.974
357.57	0.989
357.78	0.944
357.99	0.954
358.19	0.942
358.40	0.950
358.61	0.946
358.82	0.955
359.03	0.995
359.23	1.011
359.44	0.982
359.65	0.959
359.86	0.986
360.07	1.066
360.27	1.056
360.48	1.051
360.69	1.061
360.90	1.004
361.11	1.066
361.31	1.045
361.52	1.084
361.73	1.115
361.94	1.147
362.15	1.095
362.35	1.066
362.56	1.101
362.77	1.095
362.98	1.102
363.18	1.126
363.39	1.057
363.60	1.079
363.81	1.080
364.02	1.075
364.22	1.085
364.43	1.115
364.64	1.103
364.85	1.048
365.05	1.068
365.26	1.049
365.47	1.070
365.68	1.083
365.89	1.079
366.09	1.078
366.30	1.081
366.51	1.042
366.72	1.021
366.92	1.066
367.13	1.109
367.34	1.120
367.55	1.123
367.75	1.111
367.96	1.130
368.17	1.139
368.38	1.149
368.58	1.143
368.79	1.154
369.00	1.184
369.21	1.129
369.41	1.120
369.62	1.070
369.83	1.074
370.04	1.073
370.24	1.063
370.45	1.092
370.66	1.068
370.87	1.027
371.07	1.001
371.28	0.984
371.49	0.989
371.70	0.977
371.90	1.015
372.11	1.004
372.32	1.022
372.53	1.037
372.73	1.038
372.94	1.015
373.15	1.034
373.36	1.062
373.56	1.079
373.77	1.085
373.98	1.125
374.19	1.121
374.39	1.119
374.60	1.141
374.81	1.155
375.01	1.139
375.22	1.124
375.43	1.157
375.64	1.144
375.84	1.145
376.05	1.174
376.26	1.146
376.46	1.119
376.67	1.121
376.88	1.098
377.09	1.055
377.29	1.034
377.50	1.080
377.71	1.092
377.91	1.129
378.12	1.089
378.33	1.103
378.54	1.106
378.74	1.144
378.95	1.118
379.16	1.141
379.36	1.132
379.57	1.143
379.78	1.132
379.99	1.157
380.19	1.115
380.40	1.128
380.61	1.106
380.81	1.095
381.02	1.119
381.23	1.119
381.43	1.082
381.64	1.116
381.85	1.130
382.05	1.113
382.26	1.074
382.47	1.071
382.67	1.073
382.88	1.050
383.09	1.055
383.30	1.018
383.50	1.062
383.71	1.042
383.92	1.021
384.12	1.013
384.33	0.993
384.54	0.977
384.74	1.017
384.95	1.002
385.16	1.013
385.36	1.024
385.57	1.020
385.78	0.999
385.98	1.024
386.19	1.030
386.40	1.022
386.60	1.054
386.81	1.055
387.02	1.040
387.22	1.051
387.43	1.034
387.64	1.045
387.84	1.070
388.05	1.076
388.26	1.070
388.46	1.065
388.67	1.076
388.88	1.087
389.08	1.100
389.29	1.103
389.49	1.096
389.70	1.114
389.91	1.063
390.11	1.014
390.32	1.008
390.53	1.037
390.73	1.057
390.94	1.044
391.15	1.032
391.35	1.015
391.56	1.023
391.77	1.023
391.97	1.027
392.18	1.058
392.38	1.097
392.59	1.114
392.80	1.093
393.00	1.064
393.21	1.081
393.42	1.084
393.62	1.105
393.83	1.101
394.04	1.127
394.24	1.110
394.45	1.118
394.65	1.144
394.86	1.121
395.07	1.144
395.27	1.142
395.48	1.112
395.68	1.125
395.89	1.114
396.10	1.109
396.30	1.059
396.51	1.093
396.72	1.103
396.92	1.058
397.13	1.076
397.33	1.046
397.54	1.077
397.75	1.097
397.95	1.107
398.16	1.083
398.36	1.078
398.57	1.105
398.78	1.066
398.98	1.046
399.19	1.058
399.39	1.079
399.60	1.070
399.81	1.068
400.01	1.065
400.22	1.034
400.42	1.077
400.63	1.079
400.84	1.089
401.04	1.132
401.25	1.106
401.45	1.110
401.66	1.075
401.86	1.081
402.07	1.065
402.28	1.078
402.48	1.084
402.69	1.068
402.89	1.062
403.10	1.081
403.31	1.076
403.51	1.092
403.72	1.084
403.92	1.089
404.13	1.095
404.33	1.110
404.54	1.096
404.75	1.093
404.95	1.115
405.16	1.115
405.36	1.107
405.57	1.103
405.77	1.125
405.98	1.107
406.18	1.115
406.39	1.111
406.60	1.099
406.80	1.081
407.01	1.093
407.21	1.072
407.42	1.072
407.62	1.073
407.83	1.027
408.03	1.016
408.24	1.032
408.45	1.016
408.65	1.031
408.86	1.051
409.06	1.087
409.27	1.080
409.47	1.080
409.68	1.088
409.88	1.116
410.09	1.156
410.29	1.147
410.50	1.162
410.71	1.189
410.91	1.185
411.12	1.182
411.32	1.163
411.53	1.156
411.73	1.172
411.94	1.153
412.14	1.143
412.35	1.118
412.55	1.127
412.76	1.105
412.96	1.110
413.17	1.102
413.37	1.097
413.58	1.142
413.78	1.152
413.99	1.170
414.19	1.219
414.40	1.223
414.61	1.238
414.81	1.243
415.02	1.258
415.22	1.238
415.43	1.247
415.63	1.255
415.84	1.217
416.04	1.209
416.25	1.194
416.45	1.165
416.66	1.161
416.86	1.161
417.07	1.150
417.27	1.154
417.48	1.172
417.68	1.172
417.89	1.164
418.09	1.160
418.30	1.159
418.50	1.142
418.71	1.143
418.91	1.119
419.12	1.119
419.32	1.111
419.53	1.108
419.73	1.096
419.94	1.112
420.14	1.101
420.34	1.108
420.55	1.110
420.75	1.121
420.96	1.122
421.16	1.130
421.37	1.130
421.57	1.158
421.78	1.149
421.98	1.152
422.19	1.141
422.39	1.165
422.60	1.153
422.80	1.152
423.01	1.140
423.21	1.151
423.42	1.149
423.62	1.141
423.83	1.119
424.03	1.134
424.23	1.134
424.44	1.124
424.64	1.122
424.85	1.130
425.05	1.139
425.26	1.155
425.46	1.157
425.67	1.157
425.87	1.168
426.08	1.187
426.28	1.157
426.48	1.159
426.69	1.164
426.89	1.158
427.10	1.175
427.30	1.185
427.51	1.176
427.71	1.166
427.92	1.155
428.12	1.147
428.32	1.127
428.53	1.162
428.73	1.174
428.94	1.194
429.14	1.166
429.35	1.152
429.55	1.135
429.76	1.139
429.96	1.134
430.16	1.162
430.37	1.175
430.57	1.180
430.78	1.198
430.98	1.183
431.19	1.171
431.39	1.174
431.59	1.172
431.80	1.183
432.00	1.168
432.21	1.166
432.41	1.146
432.61	1.134
432.82	1.128
433.02	1.125
433.23	1.112
433.43	1.112
433.64	1.115
433.84	1.120
434.04	1.111
434.25	1.127
434.45	1.131
434.66	1.140
434.86	1.144
435.06	1.155
435.27	1.141
435.47	1.167
435.68	1.166
435.88	1.163
436.08	1.153
436.29	1.140
436.49	1.142
436.70	1.135
436.90	1.142
437.10	1.158
437.31	1.147
437.51	1.146
437.71	1.144
437.92	1.142
438.12	1.145
438.33	1.162
438.53	1.172
438.73	1.167
438.94	1.163
439.14	1.163
439.35	1.150
439.55	1.161
439.75	1.158
439.96	1.156
440.16	1.160
440.36	1.173
440.57	1.171
440.77	1.174
440.97	1.169
441.18	1.180
441.38	1.178
441.59	1.203
441.79	1.203
441.99	1.216
442.20	1.197
442.40	1.204
442.60	1.201
442.81	1.185
443.01	1.172
443.21	1.165
443.42	1.152
443.62	1.158
443.83	1.143
444.03	1.144
444.23	1.144
444.44	1.165
444.64	1.163
444.84	1.160
445.05	1.158
445.25	1.163
445.45	1.186
445.66	1.189
445.86	1.180
446.06	1.184
446.27	1.185
446.47	1.182
446.67	1.184
446.88	1.179
447.08	1.176
447.28	1.187
447.49	1.182
447.69	1.163
447.89	1.179
448.10	1.187
448.30	1.178
448.50	1.161
448.71	1.149
448.91	1.142
449.11	1.141
449.32	1.156
449.52	1.163
449.72	1.170
449.93	1.165
450.13	1.144
450.33	1.145
450.53	1.138
450.74	1.163
450.94	1.177
451.14	1.179
451.35	1.200
451.55	1.190
451.75	1.192
451.96	1.192
452.16	1.196
452.36	1.199
452.57	1.213
452.77	1.233
452.97	1.213
453.17	1.209
453.38	1.236
453.58	1.221
453.78	1.222
453.99	1.207
454.19	1.219
454.39	1.223
454.59	1.242
454.80	1.230
455.00	1.222
455.20	1.228
455.41	1.211
455.61	1.182
455.81	1.183
456.01	1.175
456.22	1.198
456.42	1.201
456.62	1.214
456.83	1.192
457.03	1.185
457.23	1.175
457.43	1.185
457.64	1.218
457.84	1.212
458.04	1.214
458.25	1.226
458.45	1.210
458.65	1.197
458.85	1.178
459.06	1.171
459.26	1.164
459.46	1.168
459.66	1.170
459.87	1.174
460.07	1.179
460.27	1.187
460.47	1.179
460.68	1.187
460.88	1.185
461.08	1.194
461.28	1.208
461.49	1.215
461.69	1.225
461.89	1.237
462.09	1.238
462.30	1.238
462.50	1.232
462.70	1.238
462.90	1.224
463.11	1.248
463.31	1.238
463.51	1.234
463.71	1.242
463.92	1.242
464.12	1.220
464.32	1.207
464.52	1.203
464.72	1.205
464.93	1.197
465.13	1.204
465.33	1.187
465.53	1.187
465.74	1.187
465.94	1.174
466.14	1.171
466.34	1.174
466.54	1.163
466.75	1.163
466.95	1.149
467.15	1.158
467.35	1.152
467.56	1.168
467.76	1.184
467.96	1.186
468.16	1.186
468.36	1.172
468.57	1.179
468.77	1.195
468.97	1.193
469.17	1.200
469.37	1.196
469.58	1.209
469.78	1.201
469.98	1.194
470.18	1.187
470.38	1.196
470.59	1.203
470.79	1.198
470.99	1.191
471.19	1.199
471.39	1.200
471.60	1.194
471.80	1.172
472.00	1.167
472.20	1.168
472.40	1.185
472.61	1.186
472.81	1.186
473.01	1.179
473.21	1.179
473.41	1.172
473.61	1.162
473.82	1.184
474.02	1.194
474.22	1.197
474.42	1.203
474.62	1.208
474.82	1.205
475.03	1.223
475.23	1.230
475.43	1.249
475.63	1.257
475.83	1.263
476.03	1.240
476.24	1.228
476.44	1.230
476.64	1.224
476.84	1.214
477.04	1.211
477.24	1.199
477.45	1.205
477.65	1.202
477.85	1.194
478.05	1.191
478.25	1.195
478.45	1.211
478.65	1.211
478.86	1.205
479.06	1.198
479.26	1.212
479.46	1.216
479.66	1.221
479.86	1.204
480.06	1.214
480.27	1.213
480.47	1.209
480.67	1.193
480.87	1.186
481.07	1.189
481.27	1.203
481.47	1.204
481.68	1.194
481.88	1.196
482.08	1.215
482.28	1.221
482.48	1.229
482.68	1.234
482.88	1.233
483.08	1.239
483.29	1.246
483.49	1.234
483.69	1.221
483.89	1.223
484.09	1.221
484.29	1.217
484.49	1.217
484.69	1.217
484.89	1.216
485.10	1.224
485.30	1.221
485.50	1.219
485.70	1.229
485.90	1.242
486.10	1.250
486.30	1.253
486.50	1.251
486.70	1.245
486.90	1.241
487.11	1.245
487.31	1.242
487.51	1.238
487.71	1.232
487.91	1.235
488.11	1.236
488.31	1.238
488.51	1.238
488.71	1.242
