OOIBase32 Version 2.0.6.5 Data File
++++++++++++++++++++++++++++++++++++
Date: 11-17-2016, 11:08:08
User: Valued Ocean Optics Customer
Spectrometer Serial Number: USB4C01507
Spectrometer Channel: Master
Integration Time (msec): 49
Spectra Averaged: 25
Boxcar Smoothing: 5
Correct for Electrical Dark: Enabled
Time Normalized: Disabled
Dual-beam Reference: Disabled
Reference Channel: Master
Temperature: Not acquired
Spectrometer Type: S4000
ADC Type: USB4000
Number of Pixels in File: 3648
Graph Title: 
>>>>>Begin Spectral Data<<<<<
178.53	1566.575
178.74	2156.920
178.96	138.374
179.18	-10.518
179.39	-200.436
179.61	-21.337
179.82	67.087
180.04	189.506
180.25	163.474
180.47	43.905
180.69	256.170
180.90	-531.414
181.12	84.448
181.33	-33.821
181.55	6.433
181.76	-8347.641
181.98	153.244
182.20	174.871
182.41	-9.185
182.63	26.251
182.84	11.298
183.06	-0.731
183.27	4.460
183.49	-0.603
183.71	-3.545
183.92	-7.911
184.14	-28.030
184.35	-19.726
184.57	-22.581
184.78	-6.100
185.00	-7.784
185.21	-2.463
185.43	13.742
185.65	20.092
185.86	18.057
186.08	18.704
186.29	20.117
186.51	25.864
186.72	19.032
186.94	16.718
187.15	16.843
187.37	16.977
187.58	18.492
187.80	15.196
188.02	9.234
188.23	10.158
188.45	11.934
188.66	16.265
188.88	12.465
189.09	12.663
189.31	20.263
189.52	10.116
189.74	7.583
189.95	8.797
190.17	-1.675
190.38	-2.987
190.60	5.897
190.82	9.804
191.03	4.693
191.25	12.774
191.46	15.789
191.68	11.615
191.89	14.888
192.11	13.775
192.32	12.882
192.54	16.922
192.75	25.504
192.97	19.843
193.18	20.367
193.40	26.331
193.61	21.375
193.83	23.395
194.04	23.153
194.26	31.470
194.48	36.116
194.69	35.892
194.91	33.482
195.12	31.724
195.34	38.619
195.55	38.360
195.77	31.833
195.98	30.773
196.20	24.939
196.41	16.358
196.63	10.854
196.84	8.953
197.06	5.311
197.27	6.918
197.49	1.436
197.70	-6.620
197.92	-9.021
198.13	-5.593
198.35	-12.181
198.56	-11.941
198.78	-6.745
198.99	-4.733
199.21	-4.922
199.42	2.791
199.64	6.861
199.85	8.666
200.07	14.010
200.28	16.546
200.50	17.573
200.71	21.856
200.93	22.057
201.14	23.471
201.36	25.489
201.57	26.016
201.79	24.121
202.00	19.996
202.22	19.179
202.43	18.951
202.65	12.898
202.86	10.361
203.08	8.278
203.29	3.821
203.51	1.532
203.72	-0.052
203.94	-0.461
204.15	1.557
204.37	6.116
204.58	3.279
204.80	3.499
205.01	11.023
205.22	10.989
205.44	13.778
205.65	13.637
205.87	13.648
206.08	13.528
206.30	16.491
206.51	13.479
206.73	11.181
206.94	12.814
207.16	11.299
207.37	5.863
207.59	4.193
207.80	2.009
208.02	6.498
208.23	9.987
208.45	7.455
208.66	2.464
208.88	3.981
209.09	1.020
209.30	-0.662
209.52	-3.620
209.73	0.535
209.95	3.440
210.16	1.466
210.38	2.640
210.59	-1.654
210.81	-2.476
211.02	-1.917
211.24	-3.702
211.45	-4.029
211.66	0.946
211.88	2.347
212.09	-0.790
212.31	-0.500
212.52	3.357
212.74	-0.352
212.95	-1.568
213.17	0.272
213.38	1.095
213.60	5.279
213.81	8.564
214.02	8.923
214.24	7.509
214.45	4.765
214.67	2.623
214.88	-0.173
215.10	0.831
215.31	3.859
215.53	2.063
215.74	-0.297
215.95	-0.899
216.17	-2.530
216.38	-6.480
216.60	-6.897
216.81	-3.974
217.03	-0.867
217.24	-1.184
217.45	-1.098
217.67	-0.351
217.88	1.908
218.10	2.043
218.31	1.253
218.53	1.723
218.74	2.586
218.95	0.115
219.17	-0.690
219.38	-1.413
219.60	1.216
219.81	2.299
220.03	1.088
220.24	1.382
220.45	3.248
220.67	3.105
220.88	4.111
221.10	4.266
221.31	6.627
221.53	6.516
221.74	6.526
221.95	5.441
222.17	3.700
222.38	3.753
222.60	2.832
222.81	1.748
223.02	1.960
223.24	1.764
223.45	1.616
223.67	0.936
223.88	0.909
224.09	1.270
224.31	1.929
224.52	2.967
224.74	2.610
224.95	3.618
225.16	4.397
225.38	4.127
225.59	3.686
225.81	3.680
226.02	3.657
226.23	3.806
226.45	3.536
226.66	2.695
226.88	2.668
227.09	3.171
227.30	2.967
227.52	2.935
227.73	2.765
227.95	2.859
228.16	2.954
228.37	2.986
228.59	3.052
228.80	3.033
229.02	3.213
229.23	3.245
229.44	3.186
229.66	3.199
229.87	3.209
230.08	3.293
230.30	3.278
230.51	3.283
230.73	3.257
230.94	3.160
231.15	3.152
231.37	3.055
231.58	2.890
231.80	2.888
232.01	3.080
232.22	3.005
232.44	3.281
232.65	3.442
232.86	3.221
233.08	3.295
233.29	3.259
233.51	3.179
233.72	3.171
233.93	3.291
234.15	3.162
234.36	3.055
234.57	3.029
234.79	2.923
235.00	3.022
235.21	3.382
235.43	3.480
235.64	3.442
235.86	3.729
236.07	3.653
236.28	3.507
236.50	3.369
236.71	3.485
236.92	3.697
237.14	3.719
237.35	3.473
237.56	3.273
237.78	3.217
237.99	3.302
238.20	3.025
238.42	3.330
238.63	3.211
238.84	3.678
239.06	3.235
239.27	2.889
239.48	2.876
239.70	2.848
239.91	2.797
240.13	2.735
240.34	2.707
240.55	2.676
240.77	2.655
240.98	2.875
241.19	2.826
241.41	2.758
241.62	2.872
241.83	2.822
242.05	2.875
242.26	2.837
242.47	2.825
242.69	2.828
242.90	2.894
243.11	2.854
243.33	2.814
243.54	2.785
243.75	2.965
243.97	2.860
244.18	2.962
244.39	2.948
244.61	2.849
244.82	2.953
245.03	2.853
245.24	2.838
245.46	2.886
245.67	2.872
245.88	2.833
246.10	2.737
246.31	2.746
246.52	2.676
246.74	2.627
246.95	2.625
247.16	2.600
247.38	2.624
247.59	2.625
247.80	2.623
248.02	2.614
248.23	2.600
248.44	2.614
248.66	2.629
248.87	2.641
249.08	2.685
249.29	2.779
249.51	2.894
249.72	2.894
249.93	2.989
250.15	3.042
250.36	3.016
250.57	2.946
250.79	3.075
251.00	3.066
251.21	3.079
251.42	3.092
251.64	2.974
251.85	2.892
252.06	2.990
252.28	2.839
252.49	2.726
252.70	2.610
252.91	2.620
253.13	2.506
253.34	2.442
253.55	2.409
253.77	2.351
253.98	2.556
254.19	2.342
254.40	2.266
254.62	2.191
254.83	1.985
255.04	2.270
255.26	2.228
255.47	2.203
255.68	2.180
255.89	2.274
256.11	2.325
256.32	1.990
256.53	2.225
256.75	2.120
256.96	2.241
257.17	2.461
257.38	2.583
257.60	2.755
257.81	2.738
258.02	2.715
258.23	2.574
258.45	2.490
258.66	2.603
258.87	2.544
259.09	2.503
259.30	2.502
259.51	2.425
259.72	2.380
259.94	2.302
260.15	2.307
260.36	2.380
260.57	2.406
260.79	2.437
261.00	2.377
261.21	2.378
261.42	2.439
261.64	2.386
261.85	2.431
262.06	2.447
262.27	2.604
262.49	2.600
262.70	2.531
262.91	2.615
263.12	2.515
263.34	2.563
263.55	2.562
263.76	2.454
263.97	2.624
264.19	2.864
264.40	2.753
264.61	2.632
264.82	2.568
265.04	2.613
265.25	2.445
265.46	2.555
265.67	2.668
265.88	2.689
266.10	2.634
266.31	2.511
266.52	2.342
266.73	2.498
266.95	2.529
267.16	2.528
267.37	2.423
267.58	2.427
267.80	2.457
268.01	2.380
268.22	2.322
268.43	2.420
268.64	2.463
268.86	2.482
269.07	2.322
269.28	2.262
269.49	2.349
269.71	2.383
269.92	2.295
270.13	2.363
270.34	2.295
270.55	2.365
270.77	2.357
270.98	2.309
271.19	2.357
271.40	2.407
271.61	2.404
271.83	2.407
272.04	2.354
272.25	2.451
272.46	2.333
272.68	2.478
272.89	2.459
273.10	2.394
273.31	2.417
273.52	2.363
273.74	2.263
273.95	2.260
274.16	2.262
274.37	2.324
274.58	2.309
274.80	2.403
275.01	2.406
275.22	2.372
275.43	2.489
275.64	2.544
275.86	2.599
276.07	2.641
276.28	2.753
276.49	2.795
276.70	2.710
276.91	2.677
277.13	2.526
277.34	2.446
277.55	2.488
277.76	2.352
277.97	2.284
278.19	2.289
278.40	2.361
278.61	2.254
278.82	2.263
279.03	2.321
279.24	2.405
279.46	2.439
279.67	2.409
279.88	2.267
280.09	2.313
280.30	2.338
280.52	2.317
280.73	2.292
280.94	2.329
281.15	2.229
281.36	2.287
281.57	2.307
281.79	2.369
282.00	2.376
282.21	2.446
282.42	2.533
282.63	2.555
282.84	2.515
283.06	2.593
283.27	2.594
283.48	2.580
283.69	2.511
283.90	2.411
284.11	2.343
284.32	2.350
284.54	2.323
284.75	2.223
284.96	2.160
285.17	2.291
285.38	2.260
285.59	2.254
285.81	2.315
286.02	2.367
286.23	2.398
286.44	2.431
286.65	2.442
286.86	2.433
287.07	2.470
287.29	2.461
287.50	2.365
287.71	2.355
287.92	2.421
288.13	2.392
288.34	2.276
288.55	2.289
288.77	2.282
288.98	2.145
289.19	2.253
289.40	2.315
289.61	2.495
289.82	2.481
290.03	2.415
290.24	2.395
290.46	2.363
290.67	2.472
290.88	2.466
291.09	2.443
291.30	2.575
291.51	2.559
291.72	2.499
291.93	2.412
292.15	2.397
292.36	2.492
292.57	2.488
292.78	2.467
292.99	2.351
293.20	2.392
293.41	2.375
293.62	2.414
293.84	2.436
294.05	2.494
294.26	2.411
294.47	2.467
294.68	2.469
294.89	2.474
295.10	2.463
295.31	2.518
295.52	2.469
295.73	2.458
295.95	2.424
296.16	2.404
296.37	2.390
296.58	2.481
296.79	2.471
297.00	2.419
297.21	2.384
297.42	2.375
297.63	2.367
297.84	2.358
298.06	2.344
298.27	2.351
298.48	2.350
298.69	2.308
298.90	2.207
299.11	2.243
299.32	2.263
299.53	2.283
299.74	2.304
299.95	2.306
300.16	2.243
300.38	2.329
300.59	2.259
300.80	2.210
301.01	2.148
301.22	2.140
301.43	2.064
301.64	2.120
301.85	2.047
302.06	2.069
302.27	2.073
302.48	2.166
302.69	2.100
302.91	2.140
303.12	2.174
303.33	2.259
303.54	2.230
303.75	2.188
303.96	2.167
304.17	2.172
304.38	2.145
304.59	2.139
304.80	2.051
305.01	2.061
305.22	2.022
305.43	2.025
305.64	1.993
305.85	2.020
306.06	2.081
306.28	2.091
306.49	2.118
306.70	2.067
306.91	1.995
307.12	2.028
307.33	1.959
307.54	2.024
307.75	1.980
307.96	1.970
308.17	1.957
308.38	1.877
308.59	1.839
308.80	1.802
309.01	1.874
309.22	1.939
309.43	1.989
309.64	2.000
309.85	1.953
310.06	1.959
310.27	1.950
310.48	1.997
310.70	2.090
310.91	2.084
311.12	2.086
311.33	2.083
311.54	2.003
311.75	1.944
311.96	1.975
312.17	1.959
312.38	1.937
312.59	1.958
312.80	1.940
313.01	1.850
313.22	1.837
313.43	1.837
313.64	1.729
313.85	1.747
314.06	1.789
314.27	1.775
314.48	1.832
314.69	1.866
314.90	1.885
315.11	1.973
315.32	1.993
315.53	1.989
315.74	1.936
315.95	2.031
316.16	2.041
316.37	1.908
316.58	1.865
316.79	1.813
317.00	1.823
317.21	1.718
317.42	1.603
317.63	1.620
317.84	1.640
318.05	1.609
318.26	1.533
318.47	1.549
318.68	1.680
318.89	1.684
319.10	1.653
319.31	1.632
319.52	1.725
319.73	1.723
319.94	1.758
320.15	1.702
320.36	1.845
320.57	1.880
320.78	1.851
320.99	1.773
321.20	1.825
321.41	1.824
321.62	1.776
321.83	1.804
322.04	1.746
322.25	1.665
322.46	1.658
322.67	1.658
322.88	1.614
323.09	1.654
323.30	1.644
323.51	1.591
323.72	1.552
323.93	1.554
324.14	1.534
324.35	1.581
324.56	1.639
324.77	1.667
324.98	1.578
325.19	1.607
325.40	1.611
325.61	1.658
325.82	1.682
326.03	1.737
326.24	1.794
326.45	1.776
326.65	1.764
326.86	1.704
327.07	1.759
327.28	1.797
327.49	1.821
327.70	1.731
327.91	1.699
328.12	1.691
328.33	1.640
328.54	1.639
328.75	1.656
328.96	1.685
329.17	1.648
329.38	1.557
329.59	1.533
329.80	1.535
330.01	1.673
330.22	1.704
330.43	1.707
330.64	1.742
330.85	1.658
331.05	1.605
331.26	1.583
331.47	1.614
331.68	1.644
331.89	1.704
332.10	1.660
332.31	1.632
332.52	1.621
332.73	1.623
332.94	1.688
333.15	1.738
333.36	1.742
333.57	1.779
333.78	1.725
333.99	1.701
334.19	1.640
334.40	1.683
334.61	1.698
334.82	1.734
335.03	1.699
335.24	1.685
335.45	1.607
335.66	1.668
335.87	1.598
336.08	1.617
336.29	1.626
336.50	1.650
336.71	1.711
336.91	1.675
337.12	1.570
337.33	1.616
337.54	1.566
337.75	1.629
337.96	1.524
338.17	1.567
338.38	1.554
338.59	1.625
338.80	1.554
339.01	1.506
339.21	1.498
339.42	1.596
339.63	1.567
339.84	1.626
340.05	1.611
340.26	1.621
340.47	1.613
340.68	1.678
340.89	1.617
341.10	1.681
341.30	1.670
341.51	1.645
341.72	1.670
341.93	1.663
342.14	1.584
342.35	1.646
342.56	1.670
342.77	1.676
342.98	1.663
343.18	1.686
343.39	1.708
343.60	1.660
343.81	1.675
344.02	1.660
344.23	1.653
344.44	1.673
344.65	1.583
344.85	1.571
345.06	1.566
345.27	1.562
345.48	1.522
345.69	1.541
345.90	1.610
346.11	1.613
346.32	1.574
346.52	1.572
346.73	1.543
346.94	1.594
347.15	1.657
347.36	1.616
347.57	1.629
347.78	1.636
347.98	1.619
348.19	1.583
348.40	1.578
348.61	1.646
348.82	1.677
349.03	1.714
349.24	1.718
349.44	1.653
349.65	1.686
349.86	1.712
350.07	1.701
350.28	1.665
350.49	1.632
350.70	1.608
350.90	1.552
351.11	1.532
351.32	1.550
351.53	1.541
351.74	1.562
351.95	1.538
352.15	1.516
352.36	1.585
352.57	1.584
352.78	1.664
352.99	1.683
353.20	1.697
353.40	1.692
353.61	1.609
353.82	1.578
354.03	1.568
354.24	1.576
354.45	1.606
354.65	1.575
354.86	1.599
355.07	1.521
355.28	1.570
355.49	1.563
355.70	1.563
355.90	1.613
356.11	1.661
356.32	1.645
356.53	1.641
356.74	1.604
356.94	1.541
357.15	1.542
357.36	1.565
357.57	1.514
357.78	1.485
357.99	1.508
358.19	1.519
358.40	1.512
358.61	1.577
358.82	1.619
359.03	1.616
359.23	1.676
359.44	1.693
359.65	1.673
359.86	1.724
360.07	1.754
360.27	1.771
360.48	1.799
360.69	1.804
360.90	1.790
361.11	1.842
361.31	1.852
361.52	1.855
361.73	1.838
361.94	1.864
362.15	1.795
362.35	1.777
362.56	1.774
362.77	1.752
362.98	1.738
363.18	1.688
363.39	1.622
363.60	1.641
363.81	1.657
364.02	1.635
364.22	1.660
364.43	1.696
364.64	1.711
364.85	1.696
365.05	1.689
365.26	1.677
365.47	1.715
365.68	1.708
365.89	1.674
366.09	1.679
366.30	1.691
366.51	1.674
366.72	1.687
366.92	1.706
367.13	1.713
367.34	1.713
367.55	1.714
367.75	1.701
367.96	1.731
368.17	1.765
368.38	1.753
368.58	1.763
368.79	1.738
369.00	1.755
369.21	1.757
369.41	1.753
369.62	1.724
369.83	1.713
370.04	1.734
370.24	1.718
370.45	1.712
370.66	1.723
370.87	1.666
371.07	1.653
371.28	1.607
371.49	1.570
371.70	1.552
371.90	1.583
372.11	1.620
372.32	1.633
372.53	1.647
372.73	1.633
372.94	1.584
373.15	1.650
373.36	1.677
373.56	1.734
373.77	1.778
373.98	1.791
374.19	1.774
374.39	1.786
374.60	1.801
374.81	1.795
375.01	1.818
375.22	1.815
375.43	1.814
375.64	1.809
375.84	1.767
376.05	1.752
376.26	1.751
376.46	1.758
376.67	1.702
376.88	1.683
377.09	1.690
377.29	1.658
377.50	1.685
377.71	1.682
377.91	1.704
378.12	1.710
378.33	1.715
378.54	1.733
378.74	1.741
378.95	1.770
379.16	1.787
379.36	1.744
379.57	1.750
379.78	1.753
379.99	1.751
380.19	1.722
380.40	1.745
380.61	1.720
380.81	1.685
381.02	1.691
381.23	1.689
381.43	1.657
381.64	1.730
381.85	1.734
382.05	1.723
382.26	1.712
382.47	1.710
382.67	1.728
382.88	1.726
383.09	1.743
383.30	1.731
383.50	1.758
383.71	1.749
383.92	1.697
384.12	1.698
384.33	1.705
384.54	1.711
384.74	1.742
384.95	1.698
385.16	1.712
385.36	1.735
385.57	1.751
385.78	1.715
385.98	1.733
386.19	1.733
386.40	1.764
386.60	1.745
386.81	1.724
387.02	1.711
387.22	1.731
387.43	1.722
387.64	1.720
387.84	1.712
388.05	1.723
388.26	1.708
388.46	1.708
388.67	1.715
388.88	1.744
389.08	1.786
389.29	1.787
389.49	1.760
389.70	1.758
389.91	1.715
390.11	1.705
390.32	1.699
390.53	1.720
390.73	1.726
390.94	1.688
391.15	1.684
391.35	1.658
391.56	1.656
391.77	1.672
391.97	1.692
392.18	1.730
392.38	1.771
392.59	1.783
392.80	1.786
393.00	1.789
393.21	1.801
393.42	1.808
393.62	1.837
393.83	1.842
394.04	1.840
394.24	1.829
394.45	1.834
394.65	1.818
394.86	1.818
395.07	1.803
395.27	1.807
395.48	1.770
395.68	1.768
395.89	1.752
396.10	1.757
396.30	1.725
396.51	1.751
396.72	1.731
396.92	1.720
397.13	1.704
397.33	1.699
397.54	1.698
397.75	1.728
397.95	1.726
398.16	1.716
398.36	1.704
398.57	1.729
398.78	1.702
398.98	1.729
399.19	1.741
399.39	1.781
399.60	1.791
399.81	1.799
400.01	1.819
400.22	1.816
400.42	1.846
400.63	1.836
400.84	1.851
401.04	1.859
401.25	1.829
401.45	1.803
401.66	1.764
401.86	1.760
402.07	1.754
402.28	1.751
402.48	1.730
402.69	1.721
402.89	1.727
403.10	1.721
403.31	1.733
403.51	1.733
403.72	1.753
403.92	1.765
404.13	1.771
404.33	1.777
404.54	1.777
404.75	1.808
404.95	1.812
405.16	1.804
405.36	1.806
405.57	1.805
405.77	1.808
405.98	1.798
406.18	1.774
406.39	1.751
406.60	1.745
406.80	1.715
407.01	1.697
407.21	1.682
407.42	1.698
407.62	1.698
407.83	1.677
408.03	1.661
408.24	1.674
408.45	1.680
408.65	1.735
408.86	1.738
409.06	1.769
409.27	1.766
409.47	1.761
409.68	1.757
409.88	1.786
410.09	1.813
410.29	1.829
410.50	1.846
410.71	1.871
410.91	1.849
411.12	1.851
411.32	1.828
411.53	1.831
411.73	1.833
411.94	1.821
412.14	1.822
412.35	1.797
412.55	1.802
412.76	1.776
412.96	1.778
413.17	1.765
413.37	1.769
413.58	1.797
413.78	1.810
413.99	1.843
414.19	1.897
414.40	1.880
414.61	1.886
414.81	1.890
415.02	1.909
415.22	1.903
415.43	1.920
415.63	1.914
415.84	1.907
416.04	1.899
416.25	1.856
416.45	1.822
416.66	1.835
416.86	1.851
417.07	1.839
417.27	1.827
417.48	1.824
417.68	1.822
417.89	1.828
418.09	1.831
418.30	1.832
418.50	1.842
418.71	1.839
418.91	1.829
419.12	1.813
419.32	1.808
419.53	1.813
419.73	1.823
419.94	1.819
420.14	1.800
420.34	1.795
420.55	1.785
420.75	1.801
420.96	1.806
421.16	1.809
421.37	1.817
421.57	1.845
421.78	1.844
421.98	1.831
422.19	1.844
422.39	1.867
422.60	1.874
422.80	1.880
423.01	1.872
423.21	1.878
423.42	1.869
423.62	1.866
423.83	1.849
424.03	1.847
424.23	1.860
424.44	1.844
424.64	1.845
424.85	1.844
425.05	1.858
425.26	1.864
425.46	1.876
425.67	1.878
425.87	1.875
426.08	1.902
426.28	1.895
426.48	1.897
426.69	1.917
426.89	1.926
427.10	1.949
427.30	1.957
427.51	1.955
427.71	1.948
427.92	1.942
428.12	1.951
428.32	1.909
428.53	1.907
428.73	1.913
428.94	1.906
429.14	1.875
429.35	1.854
429.55	1.837
429.76	1.844
429.96	1.842
430.16	1.871
430.37	1.879
430.57	1.898
430.78	1.920
430.98	1.909
431.19	1.923
431.39	1.927
431.59	1.916
431.80	1.936
432.00	1.897
432.21	1.881
432.41	1.872
432.61	1.880
432.82	1.872
433.02	1.886
433.23	1.878
433.43	1.881
433.64	1.890
433.84	1.905
434.04	1.898
434.25	1.922
434.45	1.949
434.66	1.932
434.86	1.920
435.06	1.928
435.27	1.908
435.47	1.937
435.68	1.918
435.88	1.905
436.08	1.891
436.29	1.888
436.49	1.888
436.70	1.864
436.90	1.878
437.10	1.889
437.31	1.871
437.51	1.862
437.71	1.848
437.92	1.850
438.12	1.843
438.33	1.852
438.53	1.849
438.73	1.848
438.94	1.862
439.14	1.861
439.35	1.860
439.55	1.884
439.75	1.891
439.96	1.897
440.16	1.907
440.36	1.919
440.57	1.926
440.77	1.930
440.97	1.942
441.18	1.940
441.38	1.954
441.59	1.951
441.79	1.941
441.99	1.945
442.20	1.920
442.40	1.909
442.60	1.914
442.81	1.894
443.01	1.884
443.21	1.869
443.42	1.861
443.62	1.852
443.83	1.850
444.03	1.849
444.23	1.860
444.44	1.883
444.64	1.889
444.84	1.888
445.05	1.883
445.25	1.881
445.45	1.887
445.66	1.891
445.86	1.892
446.06	1.900
446.27	1.902
446.47	1.896
446.67	1.903
446.88	1.910
447.08	1.916
447.28	1.921
447.49	1.938
447.69	1.937
447.89	1.951
448.10	1.956
448.30	1.949
448.50	1.935
448.71	1.929
448.91	1.917
449.11	1.911
449.32	1.916
449.52	1.927
449.72	1.925
449.93	1.930
450.13	1.908
450.33	1.908
450.53	1.910
450.74	1.934
450.94	1.943
451.14	1.942
451.35	1.949
451.55	1.945
451.75	1.948
451.96	1.942
452.16	1.930
452.36	1.939
452.57	1.942
452.77	1.956
452.97	1.952
453.17	1.956
453.38	1.978
453.58	1.951
453.78	1.918
453.99	1.914
454.19	1.920
454.39	1.932
454.59	1.936
454.80	1.942
455.00	1.947
455.20	1.939
455.41	1.923
455.61	1.911
455.81	1.917
456.01	1.944
456.22	1.968
456.42	1.954
456.62	1.962
456.83	1.952
457.03	1.949
457.23	1.931
457.43	1.939
457.64	1.961
457.84	1.951
458.04	1.952
458.25	1.948
458.45	1.933
458.65	1.936
458.85	1.923
459.06	1.915
459.26	1.905
459.46	1.910
459.66	1.907
459.87	1.906
460.07	1.905
460.27	1.903
460.47	1.898
460.68	1.900
460.88	1.897
461.08	1.903
461.28	1.911
461.49	1.913
461.69	1.918
461.89	1.923
462.09	1.912
462.30	1.913
462.50	1.929
462.70	1.938
462.90	1.947
463.11	1.960
463.31	1.959
463.51	1.957
463.71	1.951
463.92	1.951
464.12	1.950
464.32	1.961
464.52	1.966
464.72	1.957
464.93	1.949
465.13	1.943
465.33	1.929
465.53	1.918
465.74	1.934
465.94	1.937
466.14	1.926
466.34	1.918
466.54	1.913
466.75	1.901
466.95	1.898
467.15	1.905
467.35	1.894
467.56	1.896
467.76	1.919
467.96	1.904
468.16	1.907
468.36	1.907
468.57	1.927
468.77	1.932
468.97	1.934
469.17	1.938
469.37	1.937
469.58	1.941
469.78	1.951
469.98	1.942
470.18	1.945
470.38	1.955
470.59	1.951
470.79	1.939
470.99	1.942
471.19	1.945
471.39	1.941
471.60	1.934
471.80	1.925
472.00	1.926
472.20	1.935
472.40	1.945
472.61	1.938
472.81	1.950
473.01	1.950
473.21	1.937
473.41	1.930
473.61	1.927
473.82	1.954
474.02	1.957
474.22	1.954
474.42	1.945
474.62	1.947
474.82	1.952
475.03	1.958
475.23	1.958
475.43	1.982
475.63	1.998
475.83	2.005
476.03	1.981
476.24	1.986
476.44	1.994
476.64	1.984
476.84	1.977
477.04	1.968
477.24	1.960
477.45	1.961
477.65	1.955
477.85	1.951
478.05	1.947
478.25	1.954
478.45	1.955
478.65	1.951
478.86	1.957
479.06	1.950
479.26	1.967
479.46	1.966
479.66	1.981
479.86	1.981
480.06	1.984
480.27	1.983
480.47	1.977
480.67	1.967
480.87	1.963
481.07	1.964
481.27	1.989
481.47	1.991
481.68	2.000
481.88	2.004
482.08	2.011
482.28	2.021
482.48	2.036
482.68	2.035
482.88	2.037
483.08	2.048
483.29	2.052
483.49	2.032
483.69	2.018
483.89	2.015
484.09	2.015
484.29	2.012
484.49	2.012
484.69	2.008
484.89	2.011
485.10	2.015
485.30	2.012
485.50	2.013
485.70	2.026
485.90	2.042
486.10	2.049
486.30	2.046
486.50	2.043
486.70	2.039
486.90	2.033
487.11	2.033
487.31	2.030
487.51	2.024
487.71	2.014
487.91	2.017
488.11	2.015
488.31	2.019
