OOIBase32 Version 2.0.6.5 Data File
++++++++++++++++++++++++++++++++++++
Date: 11-17-2016, 11:08:19
User: Valued Ocean Optics Customer
Spectrometer Serial Number: USB4C01507
Spectrometer Channel: Master
Integration Time (msec): 49
Spectra Averaged: 25
Boxcar Smoothing: 5
Correct for Electrical Dark: Enabled
Time Normalized: Disabled
Dual-beam Reference: Disabled
Reference Channel: Master
Temperature: Not acquired
Spectrometer Type: S4000
ADC Type: USB4000
Number of Pixels in File: 3648
Graph Title: 
>>>>>Begin Spectral Data<<<<<
178.53	1597.530
178.74	2185.840
178.96	72.794
179.18	71.013
179.39	523.465
179.61	-9.898
179.82	48.366
180.04	78.608
180.25	181.241
180.47	-96.115
180.69	84.937
180.90	141.454
181.12	184.107
181.33	228.335
181.55	21.753
181.76	2729.047
181.98	26.151
182.20	432.309
182.41	-21.185
182.63	-144.807
182.84	0.600
183.06	3.219
183.27	-3.977
183.49	-6.793
183.71	-7.791
183.92	-9.973
184.14	-10.782
184.35	-2.556
184.57	-12.916
184.78	0.890
185.00	1.110
185.21	4.294
185.43	12.502
185.65	19.868
185.86	10.974
186.08	11.060
186.29	9.765
186.51	3.550
186.72	-8.221
186.94	1.479
187.15	-10.533
187.37	-14.901
187.58	-10.345
187.80	-11.048
188.02	-3.759
188.23	-2.318
188.45	1.640
188.66	6.065
188.88	13.280
189.09	18.860
189.31	21.388
189.52	23.811
189.74	23.467
189.95	24.455
190.17	23.909
190.38	19.394
190.60	25.936
190.82	21.858
191.03	23.363
191.25	23.377
191.46	19.772
191.68	15.919
191.89	10.304
192.11	8.547
192.32	3.676
192.54	3.877
192.75	12.501
192.97	11.406
193.18	14.097
193.40	14.909
193.61	12.412
193.83	18.823
194.04	16.288
194.26	27.630
194.48	29.181
194.69	36.811
194.91	25.752
195.12	18.141
195.34	23.763
195.55	20.523
195.77	17.983
195.98	14.305
196.20	8.259
196.41	8.161
196.63	1.347
196.84	3.938
197.06	0.655
197.27	7.812
197.49	6.380
197.70	1.286
197.92	6.614
198.13	4.538
198.35	0.314
198.56	-3.421
198.78	-9.194
198.99	-5.293
199.21	-6.501
199.42	-8.120
199.64	-3.821
199.85	-2.677
200.07	-2.783
200.28	-0.519
200.50	2.149
200.71	9.412
200.93	17.876
201.14	21.748
201.36	23.298
201.57	20.252
201.79	23.052
202.00	22.421
202.22	20.122
202.43	21.696
202.65	18.271
202.86	17.797
203.08	17.026
203.29	13.266
203.51	13.710
203.72	12.308
203.94	17.649
204.15	15.904
204.37	14.680
204.58	15.596
204.80	15.696
205.01	17.372
205.22	15.860
205.44	14.461
205.65	9.572
205.87	6.219
206.08	4.943
206.30	3.654
206.51	4.666
206.73	2.519
206.94	1.800
207.16	-0.348
207.37	-1.552
207.59	-1.039
207.80	2.418
208.02	7.075
208.23	9.329
208.45	8.405
208.66	3.865
208.88	3.691
209.09	5.663
209.30	8.936
209.52	8.223
209.73	9.854
209.95	9.742
210.16	4.208
210.38	7.358
210.59	5.627
210.81	2.807
211.02	6.041
211.24	5.364
211.45	2.054
211.66	2.650
211.88	1.801
212.09	0.769
212.31	2.701
212.52	5.467
212.74	-0.581
212.95	0.605
213.17	5.075
213.38	6.531
213.60	6.577
213.81	9.891
214.02	9.305
214.24	10.660
214.45	7.899
214.67	6.239
214.88	4.458
215.10	7.440
215.31	5.274
215.53	4.514
215.74	3.397
215.95	5.645
216.17	2.796
216.38	0.998
216.60	0.934
216.81	4.330
217.03	5.450
217.24	7.458
217.45	7.431
217.67	9.161
217.88	7.880
218.10	7.468
218.31	5.382
218.53	7.783
218.74	8.211
218.95	5.075
219.17	0.927
219.38	0.419
219.60	-0.171
219.81	-0.110
220.03	0.863
220.24	1.195
220.45	0.844
220.67	1.152
220.88	1.573
221.10	1.572
221.31	2.640
221.53	3.791
221.74	2.822
221.95	2.768
222.17	1.707
222.38	1.406
222.60	0.877
222.81	0.839
223.02	0.588
223.24	0.446
223.45	1.298
223.67	0.978
223.88	1.227
224.09	1.592
224.31	1.864
224.52	2.452
224.74	1.343
224.95	1.841
225.16	1.985
225.38	1.726
225.59	1.526
225.81	0.833
226.02	0.932
226.23	0.700
226.45	0.965
226.66	0.967
226.88	1.606
227.09	2.392
227.30	2.169
227.52	2.404
227.73	2.281
227.95	2.136
228.16	2.120
228.37	2.154
228.59	2.207
228.80	2.195
229.02	2.132
229.23	2.082
229.44	2.009
229.66	2.038
229.87	1.924
230.08	1.916
230.30	1.997
230.51	2.067
230.73	2.084
230.94	1.984
231.15	1.903
231.37	1.805
231.58	1.587
231.80	1.348
232.01	1.471
232.22	1.423
232.44	1.694
232.65	1.559
232.86	1.255
233.08	1.375
233.29	1.349
233.51	1.364
233.72	1.480
233.93	1.681
234.15	1.727
234.36	1.472
234.57	1.650
234.79	1.719
235.00	1.836
235.21	2.209
235.43	2.184
235.64	2.130
235.86	2.275
236.07	2.345
236.28	2.043
236.50	1.716
236.71	2.064
236.92	2.216
237.14	2.155
237.35	2.152
237.56	2.258
237.78	2.362
237.99	2.454
238.20	2.436
238.42	2.494
238.63	2.540
238.84	3.084
239.06	2.752
239.27	2.208
239.48	2.161
239.70	2.289
239.91	1.965
240.13	1.729
240.34	1.990
240.55	1.929
240.77	1.859
240.98	2.002
241.19	1.948
241.41	1.876
241.62	1.797
241.83	1.688
242.05	1.593
242.26	1.648
242.47	1.742
242.69	1.639
242.90	1.679
243.11	1.653
243.33	1.536
243.54	1.502
243.75	1.543
243.97	1.695
244.18	1.768
244.39	1.895
244.61	1.733
244.82	1.756
245.03	1.723
245.24	1.576
245.46	1.650
245.67	1.689
245.88	1.663
246.10	1.613
246.31	1.599
246.52	1.534
246.74	1.494
246.95	1.503
247.16	1.466
247.38	1.452
247.59	1.491
247.80	1.514
248.02	1.516
248.23	1.514
248.44	1.540
248.66	1.507
248.87	1.555
249.08	1.569
249.29	1.650
249.51	1.723
249.72	1.872
249.93	1.925
250.15	1.882
250.36	1.738
250.57	1.713
250.79	1.944
251.00	1.970
251.21	2.018
251.42	1.934
251.64	1.838
251.85	1.850
252.06	1.855
252.28	1.628
252.49	1.619
252.70	1.724
252.91	1.809
253.13	1.662
253.34	1.736
253.55	1.772
253.77	1.926
253.98	2.014
254.19	1.861
254.40	1.634
254.62	1.823
254.83	1.796
255.04	1.917
255.26	1.747
255.47	1.702
255.68	1.640
255.89	1.626
256.11	1.442
256.32	1.291
256.53	1.470
256.75	1.652
256.96	1.698
257.17	1.771
257.38	1.806
257.60	1.806
257.81	1.755
258.02	1.714
258.23	1.619
258.45	1.589
258.66	1.631
258.87	1.495
259.09	1.399
259.30	1.358
259.51	1.306
259.72	1.264
259.94	1.287
260.15	1.296
260.36	1.337
260.57	1.335
260.79	1.334
261.00	1.357
261.21	1.361
261.42	1.377
261.64	1.400
261.85	1.432
262.06	1.465
262.27	1.477
262.49	1.460
262.70	1.339
262.91	1.367
263.12	1.362
263.34	1.333
263.55	1.312
263.76	1.330
263.97	1.422
264.19	1.586
264.40	1.436
264.61	1.350
264.82	1.361
265.04	1.512
265.25	1.345
265.46	1.334
265.67	1.316
265.88	1.346
266.10	1.317
266.31	1.273
266.52	1.178
266.73	1.345
266.95	1.316
267.16	1.390
267.37	1.291
267.58	1.320
267.80	1.469
268.01	1.398
268.22	1.407
268.43	1.445
268.64	1.467
268.86	1.378
269.07	1.317
269.28	1.268
269.49	1.209
269.71	1.293
269.92	1.216
270.13	1.107
270.34	1.220
270.55	1.258
270.77	1.375
270.98	1.323
271.19	1.494
271.40	1.486
271.61	1.544
271.83	1.541
272.04	1.510
272.25	1.692
272.46	1.682
272.68	1.731
272.89	1.787
273.10	1.697
273.31	1.700
273.52	1.670
273.74	1.596
273.95	1.562
274.16	1.557
274.37	1.560
274.58	1.492
274.80	1.490
275.01	1.417
275.22	1.349
275.43	1.488
275.64	1.616
275.86	1.600
276.07	1.631
276.28	1.796
276.49	1.857
276.70	1.783
276.91	1.807
277.13	1.724
277.34	1.696
277.55	1.647
277.76	1.491
277.97	1.387
278.19	1.378
278.40	1.515
278.61	1.389
278.82	1.385
279.03	1.371
279.24	1.327
279.46	1.319
279.67	1.275
279.88	1.247
280.09	1.272
280.30	1.332
280.52	1.361
280.73	1.316
280.94	1.354
281.15	1.319
281.36	1.398
281.57	1.451
281.79	1.552
282.00	1.567
282.21	1.609
282.42	1.675
282.63	1.647
282.84	1.555
283.06	1.458
283.27	1.359
283.48	1.398
283.69	1.287
283.90	1.237
284.11	1.204
284.32	1.235
284.54	1.242
284.75	1.105
284.96	1.037
285.17	1.167
285.38	1.220
285.59	1.287
285.81	1.283
286.02	1.376
286.23	1.380
286.44	1.396
286.65	1.397
286.86	1.331
287.07	1.369
287.29	1.399
287.50	1.316
287.71	1.344
287.92	1.384
288.13	1.326
288.34	1.240
288.55	1.289
288.77	1.332
288.98	1.298
289.19	1.387
289.40	1.434
289.61	1.546
289.82	1.551
290.03	1.443
290.24	1.426
290.46	1.395
290.67	1.487
290.88	1.406
291.09	1.336
291.30	1.354
291.51	1.383
291.72	1.413
291.93	1.322
292.15	1.346
292.36	1.497
292.57	1.477
292.78	1.515
292.99	1.460
293.20	1.561
293.41	1.471
293.62	1.520
293.84	1.517
294.05	1.481
294.26	1.481
294.47	1.475
294.68	1.411
294.89	1.404
295.10	1.372
295.31	1.399
295.52	1.360
295.73	1.408
295.95	1.378
296.16	1.366
296.37	1.370
296.58	1.420
296.79	1.362
297.00	1.397
297.21	1.358
297.42	1.347
297.63	1.354
297.84	1.360
298.06	1.370
298.27	1.341
298.48	1.349
298.69	1.290
298.90	1.247
299.11	1.326
299.32	1.281
299.53	1.302
299.74	1.342
299.95	1.320
300.16	1.278
300.38	1.364
300.59	1.320
300.80	1.237
301.01	1.259
301.22	1.264
301.43	1.209
301.64	1.226
301.85	1.168
302.06	1.180
302.27	1.120
302.48	1.185
302.69	1.112
302.91	1.180
303.12	1.224
303.33	1.261
303.54	1.256
303.75	1.186
303.96	1.169
304.17	1.217
304.38	1.192
304.59	1.248
304.80	1.201
305.01	1.199
305.22	1.189
305.43	1.137
305.64	1.155
305.85	1.121
306.06	1.224
306.28	1.203
306.49	1.252
306.70	1.203
306.91	1.136
307.12	1.122
307.33	1.064
307.54	1.066
307.75	1.068
307.96	0.985
308.17	0.978
308.38	0.897
308.59	0.940
308.80	0.910
309.01	0.960
309.22	0.948
309.43	0.904
309.64	1.010
309.85	0.971
310.06	0.992
310.27	1.004
310.48	1.040
310.70	1.103
310.91	1.119
311.12	1.040
311.33	1.037
311.54	1.038
311.75	1.054
311.96	1.027
312.17	1.028
312.38	1.024
312.59	1.061
312.80	1.029
313.01	0.969
313.22	0.909
313.43	0.998
313.64	0.963
313.85	0.946
314.06	0.954
314.27	0.905
314.48	0.936
314.69	0.994
314.90	1.003
315.11	1.177
315.32	1.145
315.53	1.134
315.74	1.045
315.95	1.111
316.16	1.087
316.37	1.048
316.58	1.041
316.79	1.034
317.00	0.949
317.21	0.855
317.42	0.671
317.63	0.707
317.84	0.720
318.05	0.716
318.26	0.603
318.47	0.670
318.68	0.751
318.89	0.761
319.10	0.747
319.31	0.779
319.52	0.897
319.73	0.922
319.94	0.915
320.15	0.853
320.36	0.960
320.57	0.946
320.78	0.913
320.99	0.849
321.20	0.882
321.41	0.862
321.62	0.862
321.83	0.779
322.04	0.733
322.25	0.702
322.46	0.700
322.67	0.665
322.88	0.696
323.09	0.691
323.30	0.629
323.51	0.548
323.72	0.538
323.93	0.489
324.14	0.562
324.35	0.611
324.56	0.683
324.77	0.733
324.98	0.706
325.19	0.783
325.40	0.795
325.61	0.868
325.82	0.950
326.03	0.982
326.24	0.969
326.45	0.942
326.65	0.850
326.86	0.822
327.07	0.858
327.28	0.920
327.49	0.860
327.70	0.851
327.91	0.832
328.12	0.732
328.33	0.695
328.54	0.799
328.75	0.796
328.96	0.849
329.17	0.811
329.38	0.759
329.59	0.700
329.80	0.722
330.01	0.743
330.22	0.713
330.43	0.714
330.64	0.690
330.85	0.661
331.05	0.593
331.26	0.564
331.47	0.581
331.68	0.623
331.89	0.685
332.10	0.657
332.31	0.677
332.52	0.657
332.73	0.692
332.94	0.748
333.15	0.722
333.36	0.774
333.57	0.773
333.78	0.780
333.99	0.703
334.19	0.696
334.40	0.731
334.61	0.769
334.82	0.856
335.03	0.827
335.24	0.798
335.45	0.812
335.66	0.822
335.87	0.845
336.08	0.868
336.29	0.920
336.50	0.877
336.71	0.898
336.91	0.875
337.12	0.767
337.33	0.826
337.54	0.882
337.75	0.863
337.96	0.814
338.17	0.820
338.38	0.788
338.59	0.793
338.80	0.720
339.01	0.689
339.21	0.609
339.42	0.701
339.63	0.627
339.84	0.620
340.05	0.604
340.26	0.603
340.47	0.619
340.68	0.608
340.89	0.567
341.10	0.590
341.30	0.602
341.51	0.622
341.72	0.687
341.93	0.746
342.14	0.709
342.35	0.734
342.56	0.725
342.77	0.766
342.98	0.761
343.18	0.787
343.39	0.826
343.60	0.769
343.81	0.827
344.02	0.806
344.23	0.826
344.44	0.823
344.65	0.782
344.85	0.778
345.06	0.741
345.27	0.761
345.48	0.718
345.69	0.765
345.90	0.782
346.11	0.763
346.32	0.703
346.52	0.641
346.73	0.623
346.94	0.637
347.15	0.687
347.36	0.648
347.57	0.632
347.78	0.671
347.98	0.649
348.19	0.641
348.40	0.646
348.61	0.682
348.82	0.772
349.03	0.807
349.24	0.830
349.44	0.799
349.65	0.864
349.86	0.885
350.07	0.911
350.28	0.937
350.49	0.923
350.70	0.884
350.90	0.861
351.11	0.793
351.32	0.762
351.53	0.769
351.74	0.760
351.95	0.676
352.15	0.640
352.36	0.596
352.57	0.546
352.78	0.656
352.99	0.659
353.20	0.688
353.40	0.699
353.61	0.697
353.82	0.670
354.03	0.720
354.24	0.776
354.45	0.841
354.65	0.880
354.86	0.863
355.07	0.808
355.28	0.862
355.49	0.840
355.70	0.786
355.90	0.816
356.11	0.796
356.32	0.791
356.53	0.772
356.74	0.754
356.94	0.722
357.15	0.750
357.36	0.758
357.57	0.719
357.78	0.713
357.99	0.759
358.19	0.751
358.40	0.806
358.61	0.814
358.82	0.849
359.03	0.815
359.23	0.829
359.44	0.827
359.65	0.790
359.86	0.833
360.07	0.839
360.27	0.878
360.48	0.883
360.69	0.882
360.90	0.845
361.11	0.874
361.31	0.919
361.52	0.941
361.73	0.938
361.94	0.975
362.15	0.907
362.35	0.903
362.56	0.873
362.77	0.883
362.98	0.873
363.18	0.858
363.39	0.807
363.60	0.807
363.81	0.832
364.02	0.838
364.22	0.845
364.43	0.873
364.64	0.867
364.85	0.854
365.05	0.857
365.26	0.836
365.47	0.865
365.68	0.846
365.89	0.837
366.09	0.816
366.30	0.789
366.51	0.764
366.72	0.747
366.92	0.781
367.13	0.787
367.34	0.789
367.55	0.769
367.75	0.771
367.96	0.807
368.17	0.790
368.38	0.758
368.58	0.782
368.79	0.751
369.00	0.802
369.21	0.787
369.41	0.779
369.62	0.743
369.83	0.783
370.04	0.752
370.24	0.738
370.45	0.738
370.66	0.779
370.87	0.746
371.07	0.735
371.28	0.711
371.49	0.716
371.70	0.730
371.90	0.756
372.11	0.731
372.32	0.769
372.53	0.771
372.73	0.745
372.94	0.688
373.15	0.760
373.36	0.795
373.56	0.825
373.77	0.825
373.98	0.829
374.19	0.827
374.39	0.858
374.60	0.880
374.81	0.879
375.01	0.929
375.22	0.937
375.43	0.908
375.64	0.889
375.84	0.839
376.05	0.829
376.26	0.809
376.46	0.776
376.67	0.762
376.88	0.757
377.09	0.774
377.29	0.734
377.50	0.766
377.71	0.776
377.91	0.822
378.12	0.850
378.33	0.865
378.54	0.880
378.74	0.885
378.95	0.884
379.16	0.903
379.36	0.870
379.57	0.886
379.78	0.885
379.99	0.894
380.19	0.868
380.40	0.835
380.61	0.791
380.81	0.766
381.02	0.794
381.23	0.806
381.43	0.756
381.64	0.775
381.85	0.771
382.05	0.749
382.26	0.706
382.47	0.698
382.67	0.711
382.88	0.733
383.09	0.750
383.30	0.762
383.50	0.789
383.71	0.791
383.92	0.791
384.12	0.801
384.33	0.779
384.54	0.818
384.74	0.835
384.95	0.841
385.16	0.836
385.36	0.854
385.57	0.851
385.78	0.807
385.98	0.826
386.19	0.821
386.40	0.832
386.60	0.834
386.81	0.802
387.02	0.790
387.22	0.787
387.43	0.821
387.64	0.794
387.84	0.779
388.05	0.815
388.26	0.796
388.46	0.779
388.67	0.790
388.88	0.808
389.08	0.829
389.29	0.821
389.49	0.803
389.70	0.781
389.91	0.777
390.11	0.749
390.32	0.723
390.53	0.752
390.73	0.774
390.94	0.730
391.15	0.746
391.35	0.723
391.56	0.735
391.77	0.735
391.97	0.724
392.18	0.749
392.38	0.785
392.59	0.809
392.80	0.800
393.00	0.803
393.21	0.828
393.42	0.832
393.62	0.851
393.83	0.857
394.04	0.871
394.24	0.872
394.45	0.867
394.65	0.877
394.86	0.853
395.07	0.849
395.27	0.829
395.48	0.820
395.68	0.814
395.89	0.798
396.10	0.784
396.30	0.753
396.51	0.785
396.72	0.786
396.92	0.760
397.13	0.758
397.33	0.741
397.54	0.755
397.75	0.747
397.95	0.754
398.16	0.745
398.36	0.754
398.57	0.795
398.78	0.759
398.98	0.763
399.19	0.787
399.39	0.810
399.60	0.830
399.81	0.840
400.01	0.856
400.22	0.855
400.42	0.910
400.63	0.899
400.84	0.899
401.04	0.926
401.25	0.914
401.45	0.901
401.66	0.893
401.86	0.873
402.07	0.869
402.28	0.868
402.48	0.858
402.69	0.834
402.89	0.835
403.10	0.840
403.31	0.847
403.51	0.835
403.72	0.829
403.92	0.836
404.13	0.853
404.33	0.856
404.54	0.851
404.75	0.841
404.95	0.851
405.16	0.839
405.36	0.830
405.57	0.824
405.77	0.832
405.98	0.835
406.18	0.836
406.39	0.829
406.60	0.810
406.80	0.797
407.01	0.803
407.21	0.785
407.42	0.801
407.62	0.799
407.83	0.779
408.03	0.776
408.24	0.793
408.45	0.744
408.65	0.768
408.86	0.785
409.06	0.817
409.27	0.825
409.47	0.809
409.68	0.822
409.88	0.845
410.09	0.867
410.29	0.868
410.50	0.852
410.71	0.896
410.91	0.871
411.12	0.858
411.32	0.853
411.53	0.851
411.73	0.874
411.94	0.851
412.14	0.859
412.35	0.849
412.55	0.862
412.76	0.863
412.96	0.866
413.17	0.867
413.37	0.876
413.58	0.889
413.78	0.898
413.99	0.898
414.19	0.946
414.40	0.927
414.61	0.918
414.81	0.922
415.02	0.908
415.22	0.899
415.43	0.898
415.63	0.899
415.84	0.878
416.04	0.864
416.25	0.853
416.45	0.829
416.66	0.831
416.86	0.836
417.07	0.813
417.27	0.824
417.48	0.819
417.68	0.827
417.89	0.834
418.09	0.828
418.30	0.819
418.50	0.798
418.71	0.792
418.91	0.780
419.12	0.761
419.32	0.772
419.53	0.765
419.73	0.762
419.94	0.760
420.14	0.739
420.34	0.743
420.55	0.726
420.75	0.745
420.96	0.747
421.16	0.743
421.37	0.755
421.57	0.768
421.78	0.769
421.98	0.762
422.19	0.757
422.39	0.783
422.60	0.778
422.80	0.805
423.01	0.811
423.21	0.821
423.42	0.837
423.62	0.828
423.83	0.808
424.03	0.813
424.23	0.828
424.44	0.832
424.64	0.824
424.85	0.828
425.05	0.839
425.26	0.839
425.46	0.843
425.67	0.829
425.87	0.843
426.08	0.873
426.28	0.872
426.48	0.864
426.69	0.874
426.89	0.876
427.10	0.901
427.30	0.907
427.51	0.914
427.71	0.893
427.92	0.874
428.12	0.893
428.32	0.899
428.53	0.894
428.73	0.904
428.94	0.897
429.14	0.901
429.35	0.881
429.55	0.873
429.76	0.886
429.96	0.891
430.16	0.938
430.37	0.917
430.57	0.895
430.78	0.912
430.98	0.909
431.19	0.899
431.39	0.875
431.59	0.881
431.80	0.876
432.00	0.847
432.21	0.842
432.41	0.811
432.61	0.816
432.82	0.810
433.02	0.815
433.23	0.809
433.43	0.824
433.64	0.832
433.84	0.821
434.04	0.826
434.25	0.831
434.45	0.834
434.66	0.855
434.86	0.843
435.06	0.844
435.27	0.832
435.47	0.847
435.68	0.834
435.88	0.857
436.08	0.876
436.29	0.879
436.49	0.886
436.70	0.876
436.90	0.884
437.10	0.913
437.31	0.922
437.51	0.922
437.71	0.924
437.92	0.919
438.12	0.893
438.33	0.887
438.53	0.871
438.73	0.869
438.94	0.879
439.14	0.876
439.35	0.864
439.55	0.873
439.75	0.872
439.96	0.868
440.16	0.874
440.36	0.884
440.57	0.891
440.77	0.898
440.97	0.901
441.18	0.904
441.38	0.909
441.59	0.922
441.79	0.912
441.99	0.928
442.20	0.923
442.40	0.916
442.60	0.919
442.81	0.900
443.01	0.892
443.21	0.889
443.42	0.880
443.62	0.861
443.83	0.852
444.03	0.857
444.23	0.841
444.44	0.847
444.64	0.851
444.84	0.840
445.05	0.845
445.25	0.850
445.45	0.854
445.66	0.866
445.86	0.872
446.06	0.876
446.27	0.872
446.47	0.865
446.67	0.871
446.88	0.878
447.08	0.888
447.28	0.908
447.49	0.914
447.69	0.920
447.89	0.927
448.10	0.933
448.30	0.926
448.50	0.915
448.71	0.934
448.91	0.929
449.11	0.926
449.32	0.940
449.52	0.931
449.72	0.933
449.93	0.922
450.13	0.897
450.33	0.896
450.53	0.903
450.74	0.922
450.94	0.907
451.14	0.913
451.35	0.918
451.55	0.913
451.75	0.901
451.96	0.895
452.16	0.899
452.36	0.909
452.57	0.921
452.77	0.928
452.97	0.923
453.17	0.927
453.38	0.937
453.58	0.924
453.78	0.908
453.99	0.914
454.19	0.930
454.39	0.927
454.59	0.936
454.80	0.921
455.00	0.923
455.20	0.925
455.41	0.909
455.61	0.905
455.81	0.931
456.01	0.959
456.22	0.968
456.42	0.953
456.62	0.963
456.83	0.960
457.03	0.952
457.23	0.930
457.43	0.935
457.64	0.969
457.84	0.954
458.04	0.930
458.25	0.925
458.45	0.915
458.65	0.903
458.85	0.899
459.06	0.891
459.26	0.889
459.46	0.891
459.66	0.897
459.87	0.886
460.07	0.892
460.27	0.896
460.47	0.891
460.68	0.901
460.88	0.904
461.08	0.905
461.28	0.914
461.49	0.926
461.69	0.934
461.89	0.934
462.09	0.940
462.30	0.941
462.50	0.948
462.70	0.963
462.90	0.954
463.11	0.979
463.31	0.986
463.51	0.988
463.71	0.990
463.92	0.999
464.12	0.987
464.32	0.981
464.52	0.970
464.72	0.963
464.93	0.942
465.13	0.942
465.33	0.934
465.53	0.922
465.74	0.923
465.94	0.915
466.14	0.908
466.34	0.910
466.54	0.908
466.75	0.912
466.95	0.906
467.15	0.921
467.35	0.908
467.56	0.909
467.76	0.922
467.96	0.922
468.16	0.927
468.36	0.931
468.57	0.940
468.77	0.949
468.97	0.956
469.17	0.962
469.37	0.948
469.58	0.968
469.78	0.975
469.98	0.973
470.18	0.968
470.38	0.966
470.59	0.961
470.79	0.956
470.99	0.955
471.19	0.955
471.39	0.961
471.60	0.958
471.80	0.938
472.00	0.931
472.20	0.937
472.40	0.940
472.61	0.941
472.81	0.943
473.01	0.938
473.21	0.942
473.41	0.936
473.61	0.933
473.82	0.969
474.02	0.984
474.22	0.982
474.42	0.981
474.62	0.995
474.82	0.994
475.03	1.017
475.23	1.013
475.43	1.030
475.63	1.039
475.83	1.038
476.03	1.012
476.24	1.007
476.44	1.017
476.64	1.010
476.84	0.998
477.04	0.998
477.24	0.977
477.45	0.987
477.65	0.984
477.85	0.988
478.05	0.975
478.25	0.965
478.45	0.964
478.65	0.969
478.86	0.980
479.06	0.971
479.26	0.987
479.46	0.998
479.66	0.996
479.86	0.979
480.06	0.978
480.27	0.981
480.47	0.991
480.67	0.985
480.87	0.977
481.07	0.968
481.27	0.987
481.47	0.991
481.68	0.986
481.88	0.985
482.08	0.994
482.28	0.990
482.48	0.992
482.68	0.984
482.88	0.980
483.08	0.977
483.29	0.974
483.49	0.960
483.69	0.946
483.89	0.949
484.09	0.952
484.29	0.950
484.49	0.953
484.69	0.954
484.89	0.958
485.10	0.965
485.30	0.970
485.50	0.980
485.70	0.996
485.90	1.014
486.10	1.012
486.30	1.016
486.50	1.017
486.70	1.010
486.90	1.007
487.11	1.001
487.31	1.001
487.51	0.991
487.71	0.988
487.91	0.990
488.11	0.991
488.31	0.995
488.51	0.992
488.71	0.996
488.91	1.004
