OOIBase32 Version 2.0.6.5 Data File
++++++++++++++++++++++++++++++++++++
Date: 11-17-2016, 11:09:23
User: Valued Ocean Optics Customer
Spectrometer Serial Number: USB4C01507
Spectrometer Channel: Master
Integration Time (msec): 49
Spectra Averaged: 25
Boxcar Smoothing: 5
Correct for Electrical Dark: Enabled
Time Normalized: Disabled
Dual-beam Reference: Disabled
Reference Channel: Master
Temperature: Not acquired
Spectrometer Type: S4000
ADC Type: USB4000
Number of Pixels in File: 3648
Graph Title: 
>>>>>Begin Spectral Data<<<<<
178.53	1668.170
178.74	2294.349
178.96	58.671
179.18	37.553
179.39	490.162
179.61	41.852
179.82	67.757
180.04	15.804
180.25	137.809
180.47	59.485
180.69	-26.464
180.90	169.136
181.12	418.815
181.33	240.037
181.55	27.254
181.76	-5369.473
181.98	135.848
182.20	281.915
182.41	32.566
182.63	-152.908
182.84	37.225
183.06	29.239
183.27	30.469
183.49	26.636
183.71	27.715
183.92	18.287
184.14	1.854
184.35	-1.717
184.57	-22.009
184.78	-19.504
185.00	-15.124
185.21	-17.223
185.43	-9.854
185.65	-0.735
185.86	-5.952
186.08	-1.216
186.29	7.944
186.51	12.996
186.72	14.846
186.94	26.344
187.15	30.839
187.37	20.874
187.58	22.475
187.80	20.683
188.02	18.349
188.23	17.434
188.45	12.683
188.66	17.518
188.88	18.586
189.09	18.542
189.31	20.564
189.52	14.098
189.74	21.444
189.95	25.690
190.17	28.925
190.38	31.027
190.60	31.297
190.82	41.290
191.03	30.572
191.25	28.854
191.46	30.561
191.68	27.269
191.89	28.757
192.11	22.495
192.32	22.335
192.54	13.917
192.75	12.473
192.97	13.737
193.18	8.895
193.40	20.260
193.61	22.714
193.83	24.333
194.04	22.050
194.26	29.710
194.48	31.906
194.69	30.409
194.91	28.864
195.12	32.698
195.34	33.714
195.55	35.216
195.77	26.797
195.98	24.304
196.20	19.661
196.41	16.972
196.63	9.370
196.84	12.341
197.06	11.591
197.27	16.622
197.49	17.077
197.70	10.208
197.92	6.585
198.13	12.331
198.35	6.196
198.56	8.119
198.78	9.444
198.99	14.163
199.21	12.047
199.42	10.588
199.64	10.891
199.85	7.532
200.07	13.244
200.28	17.411
200.50	17.497
200.71	21.183
200.93	17.856
201.14	15.118
201.36	15.767
201.57	14.124
201.79	13.540
202.00	15.112
202.22	16.416
202.43	16.755
202.65	9.484
202.86	8.474
203.08	9.508
203.29	10.734
203.51	10.891
203.72	8.201
203.94	8.790
204.15	12.280
204.37	14.663
204.58	13.202
204.80	12.621
205.01	21.235
205.22	16.434
205.44	19.489
205.65	14.743
205.87	14.591
206.08	16.464
206.30	19.430
206.51	16.493
206.73	13.784
206.94	11.952
207.16	9.988
207.37	6.679
207.59	9.942
207.80	6.635
208.02	12.989
208.23	14.097
208.45	12.821
208.66	8.975
208.88	12.383
209.09	10.528
209.30	15.782
209.52	15.254
209.73	14.115
209.95	17.326
210.16	11.778
210.38	13.323
210.59	9.792
210.81	7.043
211.02	8.298
211.24	7.204
211.45	3.085
211.66	1.695
211.88	4.213
212.09	4.879
212.31	3.356
212.52	7.743
212.74	3.107
212.95	4.205
213.17	6.780
213.38	9.485
213.60	11.008
213.81	15.737
214.02	15.305
214.24	14.402
214.45	10.980
214.67	10.306
214.88	9.323
215.10	10.884
215.31	12.003
215.53	9.038
215.74	7.177
215.95	6.537
216.17	4.824
216.38	2.514
216.60	-0.185
216.81	2.333
217.03	1.267
217.24	1.160
217.45	0.661
217.67	1.386
217.88	3.698
218.10	3.377
218.31	3.199
218.53	3.760
218.74	3.353
218.95	2.464
219.17	-1.162
219.38	1.282
219.60	2.842
219.81	3.711
220.03	3.282
220.24	3.692
220.45	3.963
220.67	4.561
220.88	5.198
221.10	6.657
221.31	7.761
221.53	9.457
221.74	7.387
221.95	6.560
222.17	5.149
222.38	5.535
222.60	5.018
222.81	3.853
223.02	3.088
223.24	3.415
223.45	3.230
223.67	2.796
223.88	2.108
224.09	3.939
224.31	4.308
224.52	5.711
224.74	4.051
224.95	4.174
225.16	4.635
225.38	4.319
225.59	3.773
225.81	3.434
226.02	3.483
226.23	3.226
226.45	2.956
226.66	2.410
226.88	2.437
227.09	3.088
227.30	2.845
227.52	2.986
227.73	2.665
227.95	2.575
228.16	2.601
228.37	2.504
228.59	2.527
228.80	2.449
229.02	2.448
229.23	2.370
229.44	2.302
229.66	2.296
229.87	2.207
230.08	2.282
230.30	2.205
230.51	2.244
230.73	2.365
230.94	2.504
231.15	2.421
231.37	2.596
231.58	2.557
231.80	2.580
232.01	2.694
232.22	2.743
232.44	2.832
232.65	2.951
232.86	2.593
233.08	2.695
233.29	2.598
233.51	2.783
233.72	2.632
233.93	2.572
234.15	2.646
234.36	2.298
234.57	2.174
234.79	2.484
235.00	2.748
235.21	3.140
235.43	3.099
235.64	2.878
235.86	2.752
236.07	2.582
236.28	2.505
236.50	2.238
236.71	2.669
236.92	2.712
237.14	2.475
237.35	2.210
237.56	2.157
237.78	1.987
237.99	2.066
238.20	2.134
238.42	2.423
238.63	2.568
238.84	3.003
239.06	2.684
239.27	2.466
239.48	2.378
239.70	2.393
239.91	2.039
240.13	2.088
240.34	2.209
240.55	2.159
240.77	2.136
240.98	2.172
241.19	2.088
241.41	2.097
241.62	2.190
241.83	2.178
242.05	2.158
242.26	2.229
242.47	2.150
242.69	2.113
242.90	2.175
243.11	2.153
243.33	2.114
243.54	2.057
243.75	2.175
243.97	2.092
244.18	2.083
244.39	2.131
244.61	1.984
244.82	2.082
245.03	1.969
245.24	1.761
245.46	1.870
245.67	1.943
245.88	2.012
246.10	1.935
246.31	1.936
246.52	1.885
246.74	1.860
246.95	1.931
247.16	1.940
247.38	1.943
247.59	1.991
247.80	1.995
248.02	2.014
248.23	1.958
248.44	1.967
248.66	1.970
248.87	2.044
249.08	2.075
249.29	2.106
249.51	2.180
249.72	2.244
249.93	2.246
250.15	2.171
250.36	1.991
250.57	2.110
250.79	2.148
251.00	2.204
251.21	2.112
251.42	2.056
251.64	1.919
251.85	1.871
252.06	2.016
252.28	1.971
252.49	2.002
252.70	2.029
252.91	2.015
253.13	2.144
253.34	2.095
253.55	2.213
253.77	2.293
253.98	2.515
254.19	2.494
254.40	2.401
254.62	2.505
254.83	2.415
255.04	2.477
255.26	2.506
255.47	2.071
255.68	2.177
255.89	2.243
256.11	2.117
256.32	1.750
256.53	1.771
256.75	1.800
256.96	1.789
257.17	1.910
257.38	2.022
257.60	2.140
257.81	2.221
258.02	2.243
258.23	2.073
258.45	2.139
258.66	2.182
258.87	2.057
259.09	1.921
259.30	1.864
259.51	1.794
259.72	1.782
259.94	1.707
260.15	1.671
260.36	1.677
260.57	1.697
260.79	1.676
261.00	1.629
261.21	1.675
261.42	1.730
261.64	1.788
261.85	1.794
262.06	1.674
262.27	1.843
262.49	1.895
262.70	1.830
262.91	1.815
263.12	1.763
263.34	1.901
263.55	1.742
263.76	1.758
263.97	1.792
264.19	1.942
264.40	1.969
264.61	1.842
264.82	1.866
265.04	1.944
265.25	1.931
265.46	1.953
265.67	1.955
265.88	1.959
266.10	1.901
266.31	1.776
266.52	1.702
266.73	1.858
266.95	1.802
267.16	1.792
267.37	1.736
267.58	1.704
267.80	1.800
268.01	1.728
268.22	1.772
268.43	1.836
268.64	1.921
268.86	1.909
269.07	1.768
269.28	1.746
269.49	1.729
269.71	1.688
269.92	1.590
270.13	1.494
270.34	1.521
270.55	1.565
270.77	1.634
270.98	1.542
271.19	1.593
271.40	1.650
271.61	1.654
271.83	1.702
272.04	1.755
272.25	1.883
272.46	1.918
272.68	1.947
272.89	1.940
273.10	1.876
273.31	1.875
273.52	1.871
273.74	1.779
273.95	1.754
274.16	1.763
274.37	1.777
274.58	1.811
274.80	1.793
275.01	1.756
275.22	1.792
275.43	1.857
275.64	1.926
275.86	1.928
276.07	1.916
276.28	2.061
276.49	2.021
276.70	1.954
276.91	1.844
277.13	1.757
277.34	1.804
277.55	1.827
277.76	1.692
277.97	1.634
278.19	1.596
278.40	1.674
278.61	1.584
278.82	1.548
279.03	1.628
279.24	1.600
279.46	1.625
279.67	1.590
279.88	1.377
280.09	1.437
280.30	1.433
280.52	1.433
280.73	1.542
280.94	1.550
281.15	1.560
281.36	1.521
281.57	1.626
281.79	1.655
282.00	1.639
282.21	1.724
282.42	1.713
282.63	1.761
282.84	1.743
283.06	1.712
283.27	1.801
283.48	1.755
283.69	1.704
283.90	1.707
284.11	1.702
284.32	1.706
284.54	1.672
284.75	1.690
284.96	1.621
285.17	1.678
285.38	1.651
285.59	1.577
285.81	1.676
286.02	1.734
286.23	1.660
286.44	1.678
286.65	1.706
286.86	1.710
287.07	1.706
287.29	1.793
287.50	1.813
287.71	1.767
287.92	1.883
288.13	1.843
288.34	1.792
288.55	1.839
288.77	1.813
288.98	1.755
289.19	1.805
289.40	1.842
289.61	1.853
289.82	1.836
290.03	1.822
290.24	1.798
290.46	1.779
290.67	1.824
290.88	1.839
291.09	1.861
291.30	1.926
291.51	2.018
291.72	1.993
291.93	2.026
292.15	2.034
292.36	2.207
292.57	2.150
292.78	2.071
292.99	2.030
293.20	2.099
293.41	2.008
293.62	1.979
293.84	1.943
294.05	1.897
294.26	1.800
294.47	1.706
294.68	1.675
294.89	1.786
295.10	1.933
295.31	1.930
295.52	1.944
295.73	1.931
295.95	1.942
296.16	1.938
296.37	2.006
296.58	2.056
296.79	2.088
297.00	2.067
297.21	2.021
297.42	1.941
297.63	1.969
297.84	1.892
298.06	1.914
298.27	1.930
298.48	1.971
298.69	1.820
298.90	1.856
299.11	1.923
299.32	1.931
299.53	1.851
299.74	1.914
299.95	1.918
300.16	1.929
300.38	1.986
300.59	1.899
300.80	1.822
301.01	1.883
301.22	1.800
301.43	1.744
301.64	1.751
301.85	1.755
302.06	1.756
302.27	1.682
302.48	1.732
302.69	1.670
302.91	1.684
303.12	1.752
303.33	1.773
303.54	1.798
303.75	1.704
303.96	1.759
304.17	1.756
304.38	1.782
304.59	1.876
304.80	1.801
305.01	1.865
305.22	1.880
305.43	1.804
305.64	1.855
305.85	1.788
306.06	1.919
306.28	1.841
306.49	1.911
306.70	1.859
306.91	1.752
307.12	1.839
307.33	1.708
307.54	1.779
307.75	1.811
307.96	1.815
308.17	1.844
308.38	1.778
308.59	1.762
308.80	1.719
309.01	1.735
309.22	1.786
309.43	1.777
309.64	1.833
309.85	1.804
310.06	1.771
310.27	1.770
310.48	1.804
310.70	1.845
310.91	1.893
311.12	1.898
311.33	1.877
311.54	1.799
311.75	1.771
311.96	1.823
312.17	1.799
312.38	1.801
312.59	1.814
312.80	1.810
313.01	1.785
313.22	1.745
313.43	1.740
313.64	1.743
313.85	1.793
314.06	1.849
314.27	1.839
314.48	1.934
314.69	1.968
314.90	1.904
315.11	1.944
315.32	1.997
315.53	1.955
315.74	1.931
315.95	1.966
316.16	2.004
316.37	1.943
316.58	1.887
316.79	1.777
317.00	1.841
317.21	1.845
317.42	1.761
317.63	1.755
317.84	1.764
318.05	1.733
318.26	1.697
318.47	1.689
318.68	1.734
318.89	1.797
319.10	1.790
319.31	1.690
319.52	1.759
319.73	1.769
319.94	1.784
320.15	1.786
320.36	1.928
320.57	1.906
320.78	1.899
320.99	1.884
321.20	1.832
321.41	1.900
321.62	1.948
321.83	1.972
322.04	1.961
322.25	1.932
322.46	1.958
322.67	1.924
322.88	1.944
323.09	2.016
323.30	1.961
323.51	1.914
323.72	1.905
323.93	1.851
324.14	1.864
324.35	1.915
324.56	1.868
324.77	1.825
324.98	1.776
325.19	1.803
325.40	1.803
325.61	1.835
325.82	1.941
326.03	1.951
326.24	1.994
326.45	1.995
326.65	1.940
326.86	1.995
327.07	2.064
327.28	2.086
327.49	2.052
327.70	1.997
327.91	2.047
328.12	2.009
328.33	1.919
328.54	1.997
328.75	1.971
328.96	2.025
329.17	1.951
329.38	1.913
329.59	1.936
329.80	2.003
330.01	2.065
330.22	2.077
330.43	2.156
330.64	2.231
330.85	2.166
331.05	2.134
331.26	2.148
331.47	2.163
331.68	2.143
331.89	2.156
332.10	2.116
332.31	2.071
332.52	2.032
332.73	1.976
332.94	2.027
333.15	2.066
333.36	2.089
333.57	2.074
333.78	2.052
333.99	2.082
334.19	2.062
334.40	2.084
334.61	2.174
334.82	2.262
335.03	2.243
335.24	2.256
335.45	2.196
335.66	2.198
335.87	2.254
336.08	2.342
336.29	2.404
336.50	2.379
336.71	2.451
336.91	2.407
337.12	2.294
337.33	2.323
337.54	2.342
337.75	2.351
337.96	2.299
338.17	2.273
338.38	2.260
338.59	2.253
338.80	2.280
339.01	2.223
339.21	2.207
339.42	2.283
339.63	2.251
339.84	2.232
340.05	2.241
340.26	2.232
340.47	2.279
340.68	2.311
340.89	2.305
341.10	2.319
341.30	2.370
341.51	2.364
341.72	2.402
341.93	2.470
342.14	2.393
342.35	2.436
342.56	2.490
342.77	2.482
342.98	2.438
343.18	2.424
343.39	2.417
343.60	2.361
343.81	2.402
344.02	2.385
344.23	2.371
344.44	2.379
344.65	2.362
344.85	2.352
345.06	2.377
345.27	2.405
345.48	2.412
345.69	2.469
345.90	2.500
346.11	2.467
346.32	2.440
346.52	2.414
346.73	2.458
346.94	2.475
347.15	2.522
347.36	2.434
347.57	2.440
347.78	2.441
347.98	2.419
348.19	2.407
348.40	2.423
348.61	2.456
348.82	2.536
349.03	2.558
349.24	2.558
349.44	2.554
349.65	2.605
349.86	2.636
350.07	2.663
350.28	2.663
350.49	2.657
350.70	2.669
350.90	2.672
351.11	2.597
351.32	2.594
351.53	2.613
351.74	2.594
351.95	2.558
352.15	2.552
352.36	2.528
352.57	2.516
352.78	2.596
352.99	2.606
353.20	2.639
353.40	2.659
353.61	2.614
353.82	2.602
354.03	2.688
354.24	2.718
354.45	2.777
354.65	2.782
354.86	2.790
355.07	2.767
355.28	2.809
355.49	2.796
355.70	2.841
355.90	2.888
356.11	2.897
356.32	2.854
356.53	2.882
356.74	2.809
356.94	2.818
357.15	2.867
357.36	2.852
357.57	2.789
357.78	2.754
357.99	2.721
358.19	2.738
358.40	2.773
358.61	2.807
358.82	2.869
359.03	2.908
359.23	2.917
359.44	2.916
359.65	2.916
359.86	2.970
360.07	3.005
360.27	3.045
360.48	3.053
360.69	3.064
360.90	3.017
361.11	3.086
361.31	3.081
361.52	3.086
361.73	3.061
361.94	3.082
362.15	3.038
362.35	3.035
362.56	3.042
362.77	3.061
362.98	3.031
363.18	3.036
363.39	2.907
363.60	2.900
363.81	2.916
364.02	2.970
364.22	2.997
364.43	3.052
364.64	3.036
364.85	3.028
365.05	3.034
365.26	3.057
365.47	3.110
365.68	3.131
365.89	3.177
366.09	3.217
366.30	3.195
366.51	3.205
366.72	3.175
366.92	3.250
367.13	3.291
367.34	3.323
367.55	3.330
367.75	3.326
367.96	3.339
368.17	3.328
368.38	3.294
368.58	3.299
368.79	3.255
369.00	3.289
369.21	3.236
369.41	3.191
369.62	3.133
369.83	3.128
370.04	3.127
370.24	3.148
370.45	3.164
370.66	3.186
370.87	3.165
371.07	3.165
371.28	3.198
371.49	3.225
371.70	3.261
371.90	3.301
372.11	3.305
372.32	3.314
372.53	3.315
372.73	3.291
372.94	3.250
373.15	3.304
373.36	3.328
373.56	3.312
373.77	3.282
373.98	3.287
374.19	3.279
374.39	3.324
374.60	3.343
374.81	3.354
375.01	3.368
375.22	3.395
375.43	3.377
375.64	3.378
375.84	3.377
376.05	3.425
376.26	3.420
376.46	3.400
376.67	3.365
376.88	3.367
377.09	3.357
377.29	3.360
377.50	3.363
377.71	3.356
377.91	3.392
378.12	3.405
378.33	3.399
378.54	3.429
378.74	3.477
378.95	3.497
379.16	3.525
379.36	3.509
379.57	3.521
379.78	3.529
379.99	3.535
380.19	3.493
380.40	3.467
380.61	3.478
380.81	3.436
381.02	3.430
381.23	3.395
381.43	3.359
381.64	3.418
381.85	3.432
382.05	3.451
382.26	3.457
382.47	3.466
382.67	3.502
382.88	3.493
383.09	3.521
383.30	3.522
383.50	3.595
383.71	3.596
383.92	3.552
384.12	3.570
384.33	3.528
384.54	3.532
384.74	3.556
384.95	3.533
385.16	3.558
385.36	3.579
385.57	3.581
385.78	3.560
385.98	3.589
386.19	3.600
386.40	3.604
386.60	3.624
386.81	3.652
387.02	3.670
387.22	3.694
387.43	3.698
387.64	3.685
387.84	3.691
388.05	3.693
388.26	3.698
388.46	3.719
388.67	3.731
388.88	3.771
389.08	3.765
389.29	3.782
389.49	3.785
389.70	3.781
389.91	3.785
390.11	3.785
390.32	3.787
390.53	3.801
390.73	3.823
390.94	3.813
391.15	3.809
391.35	3.818
391.56	3.815
391.77	3.828
391.97	3.850
392.18	3.866
392.38	3.885
392.59	3.912
392.80	3.915
393.00	3.897
393.21	3.886
393.42	3.925
393.62	3.946
393.83	3.946
394.04	3.947
394.24	3.934
394.45	3.956
394.65	3.974
394.86	3.958
395.07	3.955
395.27	3.967
395.48	3.989
395.68	3.974
395.89	3.955
396.10	3.963
396.30	3.959
396.51	3.983
396.72	3.985
396.92	3.967
397.13	3.981
397.33	3.989
397.54	4.010
397.75	4.019
397.95	4.023
398.16	4.003
398.36	4.003
398.57	4.036
398.78	4.030
398.98	4.031
399.19	4.048
399.39	4.073
399.60	4.100
399.81	4.104
400.01	4.095
400.22	4.104
400.42	4.176
400.63	4.170
400.84	4.198
401.04	4.224
401.25	4.218
401.45	4.237
401.66	4.234
401.86	4.197
402.07	4.222
402.28	4.256
402.48	4.273
402.69	4.272
402.89	4.299
403.10	4.292
403.31	4.307
403.51	4.312
403.72	4.309
403.92	4.323
404.13	4.333
404.33	4.329
404.54	4.328
404.75	4.331
404.95	4.348
405.16	4.351
405.36	4.358
405.57	4.356
405.77	4.401
405.98	4.397
406.18	4.389
406.39	4.423
406.60	4.412
406.80	4.418
407.01	4.418
407.21	4.395
407.42	4.425
407.62	4.437
407.83	4.416
408.03	4.390
408.24	4.405
408.45	4.401
408.65	4.411
408.86	4.457
409.06	4.473
409.27	4.487
409.47	4.500
409.68	4.487
409.88	4.519
410.09	4.554
410.29	4.562
410.50	4.595
410.71	4.638
410.91	4.663
411.12	4.661
411.32	4.674
411.53	4.701
411.73	4.749
411.94	4.766
412.14	4.768
412.35	4.787
412.55	4.811
412.76	4.805
412.96	4.810
413.17	4.799
413.37	4.797
413.58	4.815
413.78	4.820
413.99	4.824
414.19	4.889
414.40	4.910
414.61	4.895
414.81	4.904
415.02	4.919
415.22	4.931
415.43	4.946
415.63	4.974
415.84	4.989
416.04	5.007
416.25	4.999
416.45	4.971
416.66	4.964
416.86	5.001
417.07	5.014
417.27	5.016
417.48	5.021
417.68	5.034
417.89	5.029
418.09	5.048
418.30	5.034
418.50	5.024
418.71	5.041
418.91	5.052
419.12	5.045
419.32	5.047
419.53	5.060
419.73	5.064
419.94	5.075
420.14	5.071
420.34	5.066
420.55	5.083
420.75	5.109
420.96	5.106
421.16	5.106
421.37	5.121
421.57	5.140
421.78	5.137
421.98	5.154
422.19	5.177
422.39	5.223
422.60	5.236
422.80	5.258
423.01	5.281
423.21	5.314
423.42	5.334
423.62	5.336
423.83	5.331
424.03	5.362
424.23	5.385
424.44	5.374
424.64	5.376
424.85	5.384
425.05	5.396
425.26	5.407
425.46	5.427
425.67	5.451
425.87	5.487
426.08	5.515
426.28	5.522
426.48	5.526
426.69	5.560
426.89	5.598
427.10	5.645
427.30	5.687
427.51	5.707
427.71	5.691
427.92	5.688
428.12	5.699
428.32	5.710
428.53	5.730
428.73	5.762
428.94	5.771
429.14	5.772
429.35	5.762
429.55	5.776
429.76	5.788
429.96	5.831
430.16	5.858
430.37	5.870
430.57	5.884
430.78	5.912
430.98	5.921
431.19	5.944
431.39	5.945
431.59	5.951
431.80	5.938
432.00	5.937
432.21	5.938
432.41	5.926
432.61	5.939
432.82	5.954
433.02	5.971
433.23	5.971
433.43	5.981
433.64	6.000
433.84	6.026
434.04	6.054
434.25	6.080
434.45	6.089
434.66	6.127
434.86	6.147
435.06	6.168
435.27	6.176
435.47	6.205
435.68	6.203
435.88	6.228
436.08	6.232
436.29	6.234
436.49	6.252
436.70	6.274
436.90	6.287
437.10	6.300
437.31	6.304
437.51	6.308
437.71	6.323
437.92	6.354
438.12	6.349
438.33	6.367
438.53	6.361
438.73	6.357
438.94	6.365
439.14	6.372
439.35	6.379
439.55	6.410
439.75	6.442
439.96	6.461
440.16	6.478
440.36	6.494
440.57	6.510
440.77	6.540
440.97	6.571
441.18	6.583
441.38	6.598
441.59	6.624
441.79	6.635
441.99	6.638
442.20	6.635
442.40	6.630
442.60	6.667
442.81	6.692
443.01	6.718
443.21	6.739
443.42	6.760
443.62	6.797
443.83	6.813
444.03	6.827
444.23	6.849
444.44	6.881
444.64	6.917
444.84	6.913
445.05	6.909
445.25	6.907
445.45	6.919
445.66	6.926
445.86	6.922
446.06	6.930
446.27	6.939
446.47	6.943
446.67	6.962
446.88	6.968
447.08	6.983
447.28	7.003
447.49	7.039
447.69	7.051
447.89	7.076
448.10	7.112
448.30	7.136
448.50	7.149
448.71	7.179
448.91	7.192
449.11	7.221
449.32	7.257
449.52	7.291
449.72	7.287
449.93	7.307
450.13	7.334
450.33	7.363
450.53	7.372
450.74	7.416
450.94	7.420
451.14	7.436
451.35	7.446
451.55	7.467
451.75	7.484
451.96	7.494
452.16	7.506
452.36	7.516
452.57	7.520
452.77	7.551
452.97	7.558
453.17	7.580
453.38	7.598
453.58	7.601
453.78	7.590
453.99	7.595
454.19	7.629
454.39	7.650
454.59	7.678
454.80	7.703
455.00	7.708
455.20	7.728
455.41	7.752
455.61	7.769
455.81	7.809
456.01	7.848
456.22	7.888
456.42	7.929
456.62	7.963
456.83	7.969
457.03	7.975
457.23	7.975
457.43	7.992
457.64	8.012
457.84	8.006
458.04	8.016
458.25	8.032
458.45	8.046
458.65	8.039
458.85	8.040
459.06	8.043
459.26	8.054
459.46	8.072
459.66	8.086
459.87	8.100
460.07	8.130
460.27	8.147
460.47	8.167
460.68	8.192
460.88	8.215
461.08	8.242
461.28	8.288
461.49	8.310
461.69	8.354
461.89	8.381
462.09	8.404
462.30	8.417
462.50	8.445
462.70	8.475
462.90	8.478
463.11	8.515
463.31	8.545
463.51	8.544
463.71	8.588
463.92	8.626
464.12	8.630
464.32	8.663
464.52	8.696
464.72	8.717
464.93	8.711
465.13	8.731
465.33	8.730
465.53	8.746
465.74	8.780
465.94	8.782
466.14	8.782
466.34	8.806
466.54	8.795
466.75	8.791
466.95	8.811
467.15	8.836
467.35	8.851
467.56	8.889
467.76	8.907
467.96	8.922
468.16	8.947
468.36	8.947
468.57	8.983
468.77	9.025
468.97	9.052
469.17	9.070
469.37	9.080
469.58	9.096
469.78	9.111
469.98	9.138
470.18	9.154
470.38	9.182
470.59	9.220
470.79	9.229
470.99	9.243
471.19	9.259
471.39	9.282
471.60	9.303
471.80	9.322
472.00	9.330
472.20	9.348
472.40	9.376
472.61	9.376
472.81	9.392
473.01	9.409
473.21	9.428
473.41	9.446
473.61	9.458
473.82	9.502
474.02	9.511
474.22	9.540
474.42	9.551
474.62	9.576
474.82	9.616
475.03	9.677
475.23	9.704
475.43	9.736
475.63	9.786
475.83	9.792
476.03	9.790
476.24	9.822
476.44	9.842
476.64	9.856
476.84	9.865
477.04	9.869
477.24	9.858
477.45	9.872
477.65	9.888
477.85	9.880
478.05	9.894
478.25	9.915
478.45	9.936
478.65	9.962
478.86	9.982
479.06	9.993
479.26	10.034
479.46	10.060
479.66	10.098
479.86	10.125
480.06	10.163
480.27	10.194
480.47	10.209
480.67	10.219
480.87	10.220
481.07	10.237
481.27	10.272
481.47	10.299
481.68	10.316
481.88	10.345
482.08	10.385
482.28	10.442
482.48	10.488
482.68	10.540
482.88	10.621
483.08	10.767
483.29	10.840
483.49	10.796
483.69	10.741
483.89	10.718
484.09	10.707
484.29	10.694
484.49	10.687
484.69	10.689
484.89	10.687
485.10	10.661
485.30	10.559
485.50	10.481
485.70	10.531
485.90	10.612
486.10	10.682
486.30	10.734
486.50	10.779
486.70	10.800
486.90	10.816
487.11	10.827
487.31	10.828
487.51	10.831
487.71	10.834
