OOIBase32 Version 2.0.6.5 Data File
++++++++++++++++++++++++++++++++++++
Date: 11-17-2016, 11:09:11
User: Valued Ocean Optics Customer
Spectrometer Serial Number: USB4C01507
Spectrometer Channel: Master
Integration Time (msec): 49
Spectra Averaged: 25
Boxcar Smoothing: 5
Correct for Electrical Dark: Enabled
Time Normalized: Disabled
Dual-beam Reference: Disabled
Reference Channel: Master
Temperature: Not acquired
Spectrometer Type: S4000
ADC Type: USB4000
Number of Pixels in File: 3648
Graph Title: 
>>>>>Begin Spectral Data<<<<<
178.53	1708.273
178.74	2314.137
178.96	182.229
179.18	8.817
179.39	495.618
179.61	-54.229
179.82	165.075
180.04	97.023
180.25	145.780
180.47	-34.019
180.69	-28.405
180.90	383.091
181.12	-203.650
181.33	164.681
181.55	54.562
181.76	254.949
181.98	111.934
182.20	511.275
182.41	98.265
182.63	17.155
182.84	48.991
183.06	36.435
183.27	38.636
183.49	36.060
183.71	23.971
183.92	21.248
184.14	17.665
184.35	15.025
184.57	7.876
184.78	13.567
185.00	26.058
185.21	12.565
185.43	30.014
185.65	30.547
185.86	21.806
186.08	24.497
186.29	30.145
186.51	27.014
186.72	32.820
186.94	40.036
187.15	36.609
187.37	35.418
187.58	45.415
187.80	40.551
188.02	36.193
188.23	38.312
188.45	41.085
188.66	39.764
188.88	39.799
189.09	37.642
189.31	37.119
189.52	33.258
189.74	25.305
189.95	29.530
190.17	34.679
190.38	36.770
190.60	33.595
190.82	38.906
191.03	39.381
191.25	38.789
191.46	35.377
191.68	29.497
191.89	31.319
192.11	38.437
192.32	28.017
192.54	25.927
192.75	32.902
192.97	31.009
193.18	26.730
193.40	28.691
193.61	31.149
193.83	31.797
194.04	29.770
194.26	33.383
194.48	29.046
194.69	31.828
194.91	21.082
195.12	16.426
195.34	23.637
195.55	26.355
195.77	18.197
195.98	16.484
196.20	18.166
196.41	11.010
196.63	4.709
196.84	8.156
197.06	14.661
197.27	18.002
197.49	17.678
197.70	10.572
197.92	0.572
198.13	7.532
198.35	9.402
198.56	10.469
198.78	16.863
198.99	28.094
199.21	27.090
199.42	22.038
199.64	29.289
199.85	32.686
200.07	36.703
200.28	41.530
200.50	35.592
200.71	35.280
200.93	36.237
201.14	37.294
201.36	32.045
201.57	32.925
201.79	32.444
202.00	28.549
202.22	28.384
202.43	30.994
202.65	32.095
202.86	34.500
203.08	33.988
203.29	27.515
203.51	24.813
203.72	23.590
203.94	23.374
204.15	22.359
204.37	23.419
204.58	20.950
204.80	17.357
205.01	16.597
205.22	19.314
205.44	21.014
205.65	20.826
205.87	21.525
206.08	25.947
206.30	26.590
206.51	27.657
206.73	26.833
206.94	27.341
207.16	25.102
207.37	24.189
207.59	21.537
207.80	20.602
208.02	24.037
208.23	26.719
208.45	26.142
208.66	20.595
208.88	18.609
209.09	21.038
209.30	20.719
209.52	21.027
209.73	22.358
209.95	23.420
210.16	19.300
210.38	19.420
210.59	15.886
210.81	10.882
211.02	16.493
211.24	16.076
211.45	12.893
211.66	15.172
211.88	14.680
212.09	14.341
212.31	13.939
212.52	16.996
212.74	13.273
212.95	13.892
213.17	17.426
213.38	17.706
213.60	18.890
213.81	21.698
214.02	20.371
214.24	20.130
214.45	15.914
214.67	14.627
214.88	13.298
215.10	14.709
215.31	14.006
215.53	12.704
215.74	12.130
215.95	13.190
216.17	9.823
216.38	8.574
216.60	9.604
216.81	13.104
217.03	13.520
217.24	13.700
217.45	12.454
217.67	13.587
217.88	14.033
218.10	12.413
218.31	10.742
218.53	12.097
218.74	11.860
218.95	9.783
219.17	8.276
219.38	8.322
219.60	10.061
219.81	13.061
220.03	12.141
220.24	12.466
220.45	11.550
220.67	11.209
220.88	11.090
221.10	12.138
221.31	13.249
221.53	12.816
221.74	12.171
221.95	11.246
222.17	8.745
222.38	8.781
222.60	8.342
222.81	7.701
223.02	8.272
223.24	8.084
223.45	8.156
223.67	6.818
223.88	6.994
224.09	7.780
224.31	7.326
224.52	9.300
224.74	8.682
224.95	8.533
225.16	9.214
225.38	8.668
225.59	8.791
225.81	8.061
226.02	8.459
226.23	8.170
226.45	8.002
226.66	7.490
226.88	6.952
227.09	7.269
227.30	6.936
227.52	6.780
227.73	6.287
227.95	6.124
228.16	6.112
228.37	6.042
228.59	6.109
228.80	6.078
229.02	6.102
229.23	6.057
229.44	5.965
229.66	5.990
229.87	5.945
230.08	6.200
230.30	6.206
230.51	6.188
230.73	6.366
230.94	6.389
231.15	6.313
231.37	6.429
231.58	6.471
231.80	6.461
232.01	6.540
232.22	6.703
232.44	6.616
232.65	6.709
232.86	6.598
233.08	6.269
233.29	6.224
233.51	6.282
233.72	6.131
233.93	6.009
234.15	6.189
234.36	6.068
234.57	5.939
234.79	5.946
235.00	6.103
235.21	6.447
235.43	6.617
235.64	6.353
235.86	6.509
236.07	6.573
236.28	6.622
236.50	6.330
236.71	6.437
236.92	6.660
237.14	6.644
237.35	6.645
237.56	6.604
237.78	6.620
237.99	6.812
238.20	6.568
238.42	6.717
238.63	6.516
238.84	7.006
239.06	6.957
239.27	6.503
239.48	6.386
239.70	6.374
239.91	6.129
240.13	5.926
240.34	5.812
240.55	5.926
240.77	5.784
240.98	5.799
241.19	5.622
241.41	5.475
241.62	5.517
241.83	5.480
242.05	5.410
242.26	5.476
242.47	5.515
242.69	5.523
242.90	5.489
243.11	5.515
243.33	5.463
243.54	5.411
243.75	5.500
243.97	5.464
244.18	5.572
244.39	5.542
244.61	5.341
244.82	5.353
245.03	5.392
245.24	5.310
245.46	5.263
245.67	5.390
245.88	5.394
246.10	5.352
246.31	5.374
246.52	5.358
246.74	5.350
246.95	5.389
247.16	5.375
247.38	5.365
247.59	5.392
247.80	5.450
248.02	5.452
248.23	5.465
248.44	5.491
248.66	5.526
248.87	5.548
249.08	5.610
249.29	5.715
249.51	5.847
249.72	6.083
249.93	6.185
250.15	6.287
250.36	6.299
250.57	6.309
250.79	6.444
251.00	6.456
251.21	6.369
251.42	6.344
251.64	6.158
251.85	6.064
252.06	5.985
252.28	5.847
252.49	5.754
252.70	5.751
252.91	5.743
253.13	5.684
253.34	5.670
253.55	5.723
253.77	5.718
253.98	5.821
254.19	5.750
254.40	5.615
254.62	5.943
254.83	5.771
255.04	5.885
255.26	6.089
255.47	5.895
255.68	5.849
255.89	5.959
256.11	5.902
256.32	5.833
256.53	5.997
256.75	5.931
256.96	5.659
257.17	5.890
257.38	5.875
257.60	5.863
257.81	5.898
258.02	5.731
258.23	5.466
258.45	5.364
258.66	5.372
258.87	5.267
259.09	5.281
259.30	5.261
259.51	5.196
259.72	5.187
259.94	5.125
260.15	5.116
260.36	5.170
260.57	5.204
260.79	5.209
261.00	5.184
261.21	5.175
261.42	5.168
261.64	5.246
261.85	5.235
262.06	5.149
262.27	5.307
262.49	5.347
262.70	5.316
262.91	5.406
263.12	5.418
263.34	5.435
263.55	5.451
263.76	5.462
263.97	5.515
264.19	5.690
264.40	5.730
264.61	5.590
264.82	5.626
265.04	5.620
265.25	5.487
265.46	5.439
265.67	5.519
265.88	5.606
266.10	5.488
266.31	5.380
266.52	5.232
266.73	5.362
266.95	5.364
267.16	5.271
267.37	5.203
267.58	5.135
267.80	5.189
268.01	5.059
268.22	4.955
268.43	5.045
268.64	4.999
268.86	5.016
269.07	4.847
269.28	4.733
269.49	4.772
269.71	4.800
269.92	4.843
270.13	4.869
270.34	4.885
270.55	4.880
270.77	4.915
270.98	4.874
271.19	4.991
271.40	5.013
271.61	5.003
271.83	4.981
272.04	4.982
272.25	5.022
272.46	4.973
272.68	5.021
272.89	5.050
273.10	4.969
273.31	4.944
273.52	4.876
273.74	4.889
273.95	4.924
274.16	4.936
274.37	4.970
274.58	4.932
274.80	4.987
275.01	4.919
275.22	4.933
275.43	4.987
275.64	5.111
275.86	5.170
276.07	5.099
276.28	5.195
276.49	5.233
276.70	5.149
276.91	5.201
277.13	5.180
277.34	5.261
277.55	5.306
277.76	5.229
277.97	5.157
278.19	5.120
278.40	5.195
278.61	5.102
278.82	5.022
279.03	5.116
279.24	5.023
279.46	4.996
279.67	4.895
279.88	4.728
280.09	4.753
280.30	4.755
280.52	4.766
280.73	4.737
280.94	4.873
281.15	4.885
281.36	4.823
281.57	4.907
281.79	4.973
282.00	5.061
282.21	5.048
282.42	5.025
282.63	5.095
282.84	5.004
283.06	5.054
283.27	4.948
283.48	5.025
283.69	4.969
283.90	4.961
284.11	4.873
284.32	4.836
284.54	4.872
284.75	4.883
284.96	4.810
285.17	4.931
285.38	4.910
285.59	4.958
285.81	4.949
286.02	5.015
286.23	4.985
286.44	5.055
286.65	5.102
286.86	5.096
287.07	5.073
287.29	5.093
287.50	5.058
287.71	5.047
287.92	5.034
288.13	5.026
288.34	5.015
288.55	5.092
288.77	5.065
288.98	5.042
289.19	5.144
289.40	5.252
289.61	5.303
289.82	5.247
290.03	5.304
290.24	5.354
290.46	5.369
290.67	5.467
290.88	5.480
291.09	5.490
291.30	5.535
291.51	5.575
291.72	5.616
291.93	5.695
292.15	5.735
292.36	5.892
292.57	5.868
292.78	5.858
292.99	5.761
293.20	5.849
293.41	5.858
293.62	5.902
293.84	5.964
294.05	5.983
294.26	5.948
294.47	6.049
294.68	5.987
294.89	6.063
295.10	6.156
295.31	6.282
295.52	6.262
295.73	6.301
295.95	6.312
296.16	6.331
296.37	6.404
296.58	6.461
296.79	6.440
297.00	6.462
297.21	6.423
297.42	6.393
297.63	6.406
297.84	6.438
298.06	6.458
298.27	6.512
298.48	6.574
298.69	6.544
298.90	6.511
299.11	6.627
299.32	6.644
299.53	6.763
299.74	6.883
299.95	6.886
300.16	6.902
300.38	6.940
300.59	6.879
300.80	6.819
301.01	6.757
301.22	6.756
301.43	6.701
301.64	6.676
301.85	6.610
302.06	6.627
302.27	6.689
302.48	6.723
302.69	6.794
302.91	6.857
303.12	6.962
303.33	7.076
303.54	7.162
303.75	7.149
303.96	7.193
304.17	7.265
304.38	7.214
304.59	7.200
304.80	7.217
305.01	7.216
305.22	7.259
305.43	7.253
305.64	7.282
305.85	7.296
306.06	7.402
306.28	7.504
306.49	7.522
306.70	7.521
306.91	7.539
307.12	7.562
307.33	7.492
307.54	7.543
307.75	7.513
307.96	7.529
308.17	7.530
308.38	7.462
308.59	7.479
308.80	7.538
309.01	7.702
309.22	7.736
309.43	7.752
309.64	7.895
309.85	7.847
310.06	7.884
310.27	7.932
310.48	8.027
310.70	8.142
310.91	8.228
311.12	8.231
311.33	8.218
311.54	8.217
311.75	8.245
311.96	8.233
312.17	8.318
312.38	8.360
312.59	8.424
312.80	8.424
313.01	8.465
313.22	8.399
313.43	8.407
313.64	8.415
313.85	8.464
314.06	8.548
314.27	8.598
314.48	8.670
314.69	8.795
314.90	8.824
315.11	8.902
315.32	8.905
315.53	8.975
315.74	9.034
315.95	9.122
316.16	9.197
316.37	9.210
316.58	9.324
316.79	9.237
317.00	9.184
317.21	9.205
317.42	9.221
317.63	9.303
317.84	9.284
318.05	9.359
318.26	9.403
318.47	9.449
318.68	9.543
318.89	9.574
319.10	9.696
319.31	9.806
319.52	9.902
319.73	9.978
319.94	10.085
320.15	10.203
320.36	10.284
320.57	10.318
320.78	10.334
320.99	10.296
321.20	10.325
321.41	10.365
321.62	10.387
321.83	10.372
322.04	10.435
322.25	10.407
322.46	10.464
322.67	10.502
322.88	10.589
323.09	10.683
323.30	10.737
323.51	10.763
323.72	10.862
323.93	10.884
324.14	11.017
324.35	11.058
324.56	11.119
324.77	11.169
324.98	11.174
325.19	11.228
325.40	11.385
325.61	11.492
325.82	11.620
326.03	11.638
326.24	11.690
326.45	11.676
326.65	11.674
326.86	11.709
327.07	11.775
327.28	11.888
327.49	11.947
327.70	11.877
327.91	11.887
328.12	11.861
328.33	11.865
328.54	12.015
328.75	12.102
328.96	12.188
329.17	12.253
329.38	12.304
329.59	12.301
329.80	12.352
330.01	12.487
330.22	12.613
330.43	12.697
330.64	12.827
330.85	12.858
331.05	12.882
331.26	12.969
331.47	12.986
331.68	13.043
331.89	13.110
332.10	13.122
332.31	13.120
332.52	13.108
332.73	13.128
332.94	13.180
333.15	13.200
333.36	13.267
333.57	13.283
333.78	13.369
333.99	13.378
334.19	13.507
334.40	13.610
334.61	13.733
334.82	13.877
335.03	13.913
335.24	13.985
335.45	14.082
335.66	14.168
335.87	14.231
336.08	14.291
336.29	14.363
336.50	14.363
336.71	14.424
336.91	14.449
337.12	14.395
337.33	14.509
337.54	14.580
337.75	14.640
337.96	14.644
338.17	14.748
338.38	14.766
338.59	14.857
338.80	14.899
339.01	14.936
339.21	14.963
339.42	15.024
339.63	15.067
339.84	15.127
340.05	15.185
340.26	15.219
340.47	15.204
340.68	15.294
340.89	15.323
341.10	15.362
341.30	15.385
341.51	15.472
341.72	15.595
341.93	15.656
342.14	15.659
342.35	15.674
342.56	15.780
342.77	15.843
342.98	15.851
343.18	15.896
343.39	15.980
343.60	16.013
343.81	16.042
344.02	16.107
344.23	16.194
344.44	16.241
344.65	16.316
344.85	16.326
345.06	16.400
345.27	16.479
345.48	16.518
345.69	16.613
345.90	16.741
346.11	16.794
346.32	16.784
346.52	16.792
346.73	16.833
346.94	16.851
347.15	16.941
347.36	16.967
347.57	17.054
347.78	17.136
347.98	17.109
348.19	17.110
348.40	17.167
348.61	17.275
348.82	17.310
349.03	17.420
349.24	17.449
349.44	17.516
349.65	17.566
349.86	17.596
350.07	17.666
350.28	17.750
350.49	17.795
350.70	17.837
350.90	17.870
351.11	17.904
351.32	17.939
351.53	18.061
351.74	18.086
351.95	18.130
352.15	18.197
352.36	18.247
352.57	18.289
352.78	18.380
352.99	18.426
353.20	18.489
353.40	18.593
353.61	18.651
353.82	18.648
354.03	18.705
354.24	18.765
354.45	18.879
354.65	18.927
354.86	18.965
355.07	19.031
355.28	19.111
355.49	19.139
355.70	19.153
355.90	19.167
356.11	19.250
356.32	19.333
356.53	19.406
356.74	19.376
356.94	19.400
357.15	19.468
357.36	19.457
357.57	19.527
357.78	19.592
357.99	19.646
358.19	19.712
358.40	19.748
358.61	19.748
358.82	19.818
359.03	19.874
359.23	19.968
359.44	20.039
359.65	20.106
359.86	20.141
360.07	20.214
360.27	20.299
360.48	20.371
360.69	20.453
360.90	20.509
361.11	20.610
361.31	20.694
361.52	20.733
361.73	20.798
361.94	20.898
362.15	20.931
362.35	20.966
362.56	20.991
362.77	21.045
362.98	21.086
363.18	21.172
363.39	21.137
363.60	21.168
363.81	21.212
364.02	21.279
364.22	21.337
364.43	21.368
364.64	21.430
364.85	21.477
365.05	21.490
365.26	21.551
365.47	21.604
365.68	21.678
365.89	21.717
366.09	21.795
366.30	21.810
366.51	21.826
366.72	21.907
366.92	21.956
367.13	22.072
367.34	22.143
367.55	22.152
367.75	22.203
367.96	22.271
368.17	22.316
368.38	22.354
368.58	22.416
368.79	22.448
369.00	22.537
369.21	22.609
369.41	22.633
369.62	22.674
369.83	22.773
370.04	22.806
370.24	22.841
370.45	22.928
370.66	22.983
370.87	23.002
371.07	23.049
371.28	23.052
371.49	23.094
371.70	23.153
371.90	23.224
372.11	23.234
372.32	23.284
372.53	23.376
372.73	23.422
372.94	23.468
373.15	23.511
373.36	23.606
373.56	23.686
373.77	23.752
373.98	23.819
374.19	23.841
374.39	23.938
374.60	24.009
374.81	24.033
375.01	24.098
375.22	24.104
375.43	24.236
375.64	24.287
375.84	24.314
376.05	24.329
376.26	24.370
376.46	24.421
376.67	24.466
376.88	24.513
377.09	24.536
377.29	24.554
377.50	24.617
377.71	24.630
377.91	24.653
378.12	24.707
378.33	24.773
378.54	24.824
378.74	24.889
378.95	24.939
379.16	25.027
379.36	25.112
379.57	25.189
379.78	25.275
379.99	25.350
380.19	25.389
380.40	25.440
380.61	25.459
380.81	25.457
381.02	25.517
381.23	25.568
381.43	25.595
381.64	25.659
381.85	25.723
382.05	25.763
382.26	25.787
382.47	25.884
382.67	25.961
382.88	26.052
383.09	26.164
383.30	26.212
383.50	26.276
383.71	26.311
383.92	26.375
384.12	26.424
384.33	26.449
384.54	26.523
384.74	26.582
384.95	26.654
385.16	26.662
385.36	26.690
385.57	26.728
385.78	26.780
385.98	26.893
386.19	26.910
386.40	26.980
386.60	27.060
386.81	27.094
387.02	27.147
387.22	27.161
387.43	27.244
387.64	27.295
387.84	27.359
388.05	27.431
388.26	27.439
388.46	27.510
388.67	27.557
388.88	27.610
389.08	27.675
389.29	27.731
389.49	27.775
389.70	27.840
389.91	27.907
390.11	27.949
390.32	27.978
390.53	28.060
390.73	28.136
390.94	28.193
391.15	28.239
391.35	28.323
391.56	28.377
391.77	28.469
391.97	28.543
392.18	28.604
392.38	28.715
392.59	28.784
392.80	28.834
393.00	28.892
393.21	28.950
393.42	29.026
393.62	29.080
393.83	29.116
394.04	29.142
394.24	29.161
394.45	29.193
394.65	29.226
394.86	29.272
395.07	29.319
395.27	29.324
395.48	29.364
395.68	29.432
395.89	29.444
396.10	29.533
396.30	29.572
396.51	29.631
396.72	29.737
396.92	29.779
397.13	29.853
397.33	29.905
397.54	29.974
397.75	30.063
397.95	30.106
398.16	30.176
398.36	30.196
398.57	30.294
398.78	30.371
398.98	30.406
399.19	30.456
399.39	30.495
399.60	30.545
399.81	30.612
400.01	30.658
400.22	30.733
400.42	30.813
400.63	30.863
400.84	30.928
401.04	30.961
401.25	31.017
401.45	31.092
401.66	31.173
401.86	31.248
402.07	31.344
402.28	31.406
402.48	31.475
402.69	31.530
402.89	31.616
403.10	31.670
403.31	31.749
403.51	31.811
403.72	31.879
403.92	31.910
404.13	31.967
404.33	31.996
404.54	32.037
404.75	32.093
404.95	32.177
405.16	32.217
405.36	32.310
405.57	32.376
405.77	32.426
405.98	32.478
406.18	32.497
406.39	32.494
406.60	32.532
406.80	32.557
407.01	32.631
407.21	32.660
407.42	32.750
407.62	32.754
407.83	32.795
408.03	32.858
408.24	32.923
408.45	33.001
408.65	33.113
408.86	33.184
409.06	33.291
409.27	33.324
409.47	33.342
409.68	33.372
409.88	33.453
410.09	33.512
410.29	33.559
410.50	33.604
410.71	33.693
410.91	33.731
411.12	33.751
411.32	33.815
411.53	33.862
411.73	33.930
411.94	33.979
412.14	33.997
412.35	34.029
412.55	34.086
412.76	34.127
412.96	34.162
413.17	34.219
413.37	34.304
413.58	34.348
413.78	34.388
413.99	34.479
414.19	34.570
414.40	34.681
414.61	34.770
414.81	34.828
415.02	34.874
415.22	34.953
415.43	35.034
415.63	35.099
415.84	35.146
416.04	35.221
416.25	35.289
416.45	35.350
416.66	35.408
416.86	35.456
417.07	35.498
417.27	35.564
417.48	35.592
417.68	35.626
417.89	35.648
418.09	35.682
418.30	35.693
418.50	35.705
418.71	35.736
418.91	35.769
419.12	35.801
419.32	35.863
419.53	35.907
419.73	35.983
419.94	36.044
420.14	36.113
420.34	36.172
420.55	36.205
420.75	36.243
420.96	36.276
421.16	36.304
421.37	36.352
421.57	36.401
421.78	36.439
421.98	36.486
422.19	36.533
422.39	36.613
422.60	36.691
422.80	36.790
423.01	36.873
423.21	36.944
423.42	36.966
423.62	36.975
423.83	36.979
424.03	36.996
424.23	37.015
424.44	37.043
424.64	37.050
424.85	37.077
425.05	37.115
425.26	37.142
425.46	37.189
425.67	37.265
425.87	37.354
426.08	37.448
426.28	37.520
426.48	37.584
426.69	37.656
426.89	37.716
427.10	37.764
427.30	37.821
427.51	37.890
427.71	37.919
427.92	37.939
428.12	37.988
428.32	37.994
428.53	38.051
428.73	38.085
428.94	38.108
429.14	38.137
429.35	38.139
429.55	38.161
429.76	38.192
429.96	38.216
430.16	38.291
430.37	38.311
430.57	38.343
430.78	38.386
430.98	38.425
431.19	38.478
431.39	38.552
431.59	38.618
431.80	38.668
432.00	38.664
432.21	38.688
432.41	38.680
432.61	38.711
432.82	38.728
433.02	38.751
433.23	38.771
433.43	38.789
433.64	38.808
433.84	38.830
434.04	38.857
434.25	38.925
434.45	38.963
434.66	39.047
434.86	39.109
435.06	39.188
435.27	39.262
435.47	39.332
435.68	39.381
435.88	39.415
436.08	39.441
436.29	39.479
436.49	39.525
436.70	39.569
436.90	39.574
437.10	39.610
437.31	39.655
437.51	39.718
437.71	39.760
437.92	39.825
438.12	39.869
438.33	39.928
438.53	39.947
438.73	39.948
438.94	39.968
439.14	40.017
439.35	40.062
439.55	40.119
439.75	40.147
439.96	40.173
440.16	40.200
440.36	40.232
440.57	40.245
440.77	40.292
440.97	40.361
441.18	40.421
441.38	40.464
441.59	40.496
441.79	40.518
441.99	40.529
442.20	40.583
442.40	40.629
442.60	40.680
442.81	40.737
443.01	40.786
443.21	40.821
443.42	40.866
443.62	40.922
443.83	40.964
444.03	40.985
444.23	41.029
444.44	41.067
444.64	41.096
444.84	41.102
445.05	41.144
445.25	41.138
445.45	41.131
445.66	41.112
445.86	41.085
446.06	41.095
446.27	41.093
446.47	41.089
446.67	41.105
446.88	41.114
447.08	41.149
447.28	41.162
447.49	41.216
447.69	41.254
447.89	41.312
448.10	41.402
448.30	41.472
448.50	41.537
448.71	41.613
448.91	41.624
449.11	41.622
449.32	41.646
449.52	41.686
449.72	41.718
449.93	41.778
450.13	41.833
450.33	41.861
450.53	41.861
450.74	41.894
450.94	41.938
451.14	41.997
451.35	42.076
451.55	42.118
451.75	42.114
451.96	42.116
452.16	42.115
452.36	42.125
452.57	42.140
452.77	42.184
452.97	42.224
453.17	42.220
453.38	42.258
453.58	42.257
453.78	42.249
453.99	42.301
454.19	42.367
454.39	42.439
454.59	42.465
454.80	42.505
455.00	42.519
455.20	42.547
455.41	42.586
455.61	42.610
455.81	42.698
456.01	42.789
456.22	42.841
456.42	42.880
456.62	42.913
456.83	42.972
457.03	42.990
457.23	43.014
457.43	43.052
457.64	43.095
457.84	43.146
458.04	43.196
458.25	43.237
458.45	43.313
458.65	43.316
458.85	43.329
459.06	43.309
459.26	43.304
459.46	43.305
459.66	43.279
459.87	43.280
460.07	43.279
460.27	43.274
460.47	43.276
460.68	43.263
460.88	43.288
461.08	43.291
461.28	43.357
461.49	43.416
461.69	43.474
461.89	43.562
462.09	43.633
462.30	43.657
462.50	43.708
462.70	43.745
462.90	43.747
463.11	43.786
463.31	43.840
463.51	43.858
463.71	43.916
463.92	43.954
464.12	43.995
464.32	44.015
464.52	44.068
464.72	44.064
464.93	44.092
465.13	44.146
465.33	44.186
465.53	44.191
465.74	44.197
465.94	44.173
466.14	44.171
466.34	44.174
466.54	44.157
466.75	44.124
466.95	44.137
467.15	44.124
467.35	44.118
467.56	44.126
467.76	44.163
467.96	44.219
468.16	44.273
468.36	44.306
468.57	44.358
468.77	44.404
468.97	44.455
469.17	44.494
469.37	44.555
469.58	44.594
469.78	44.613
469.98	44.649
470.18	44.674
470.38	44.703
470.59	44.756
470.79	44.787
470.99	44.835
471.19	44.893
471.39	44.948
471.60	45.005
471.80	45.051
472.00	45.097
472.20	45.100
472.40	45.077
472.61	45.079
472.81	45.083
473.01	45.063
473.21	45.077
473.41	45.086
473.61	45.087
473.82	45.097
474.02	45.094
474.22	45.095
474.42	45.134
474.62	45.223
474.82	45.290
475.03	45.386
475.23	45.443
475.43	45.480
475.63	45.526
475.83	45.563
