OOIBase32 Version 2.0.6.5 Data File
++++++++++++++++++++++++++++++++++++
Date: 11-17-2016, 11:08:47
User: Valued Ocean Optics Customer
Spectrometer Serial Number: USB4C01507
Spectrometer Channel: Master
Integration Time (msec): 49
Spectra Averaged: 25
Boxcar Smoothing: 5
Correct for Electrical Dark: Enabled
Time Normalized: Disabled
Dual-beam Reference: Disabled
Reference Channel: Master
Temperature: Not acquired
Spectrometer Type: S4000
ADC Type: USB4000
Number of Pixels in File: 3648
Graph Title: 
>>>>>Begin Spectral Data<<<<<
178.53	1645.445
178.74	2276.673
178.96	125.962
179.18	-13.450
179.39	432.791
179.61	-74.033
179.82	34.692
180.04	-7.829
180.25	162.278
180.47	108.652
180.69	228.114
180.90	-747.579
181.12	-70.553
181.33	212.375
181.55	-39.757
181.76	5712.211
181.98	121.917
182.20	-437.153
182.41	51.874
182.63	63.657
182.84	-2.598
183.06	3.231
183.27	7.408
183.49	14.607
183.71	4.335
183.92	-3.973
184.14	-14.477
184.35	-5.339
184.57	-10.305
184.78	-0.422
185.00	0.190
185.21	4.890
185.43	21.923
185.65	18.363
185.86	17.067
186.08	21.465
186.29	30.976
186.51	36.747
186.72	32.303
186.94	39.537
187.15	35.180
187.37	39.374
187.58	33.021
187.80	27.223
188.02	31.054
188.23	30.474
188.45	34.210
188.66	30.162
188.88	22.385
189.09	27.234
189.31	25.148
189.52	25.452
189.74	24.052
189.95	30.253
190.17	27.890
190.38	33.344
190.60	33.525
190.82	35.545
191.03	35.914
191.25	31.268
191.46	27.197
191.68	25.837
191.89	22.237
192.11	24.100
192.32	16.745
192.54	13.013
192.75	13.059
192.97	11.038
193.18	10.462
193.40	8.930
193.61	16.496
193.83	20.190
194.04	14.745
194.26	26.966
194.48	23.495
194.69	23.150
194.91	19.289
195.12	13.555
195.34	18.121
195.55	9.987
195.77	10.368
195.98	5.093
196.20	-0.929
196.41	-2.670
196.63	-10.037
196.84	-8.901
197.06	-2.010
197.27	-3.719
197.49	1.543
197.70	-6.398
197.92	-3.408
198.13	-3.543
198.35	-1.729
198.56	0.539
198.78	1.317
198.99	2.079
199.21	3.153
199.42	-3.812
199.64	11.076
199.85	7.819
200.07	13.087
200.28	18.294
200.50	16.098
200.71	19.928
200.93	19.934
201.14	23.893
201.36	18.595
201.57	15.688
201.79	16.758
202.00	10.244
202.22	11.632
202.43	9.349
202.65	1.371
202.86	2.178
203.08	0.082
203.29	0.869
203.51	-5.520
203.72	-0.889
203.94	2.633
204.15	3.753
204.37	6.636
204.58	1.189
204.80	5.312
205.01	13.151
205.22	15.167
205.44	15.232
205.65	11.582
205.87	10.587
206.08	8.417
206.30	9.036
206.51	5.577
206.73	4.768
206.94	9.012
207.16	5.118
207.37	-1.016
207.59	-0.812
207.80	-1.266
208.02	3.242
208.23	10.466
208.45	12.575
208.66	6.625
208.88	8.926
209.09	9.215
209.30	8.528
209.52	9.122
209.73	10.434
209.95	11.635
210.16	10.049
210.38	10.253
210.59	6.169
210.81	6.430
211.02	7.412
211.24	6.285
211.45	3.055
211.66	3.667
211.88	4.026
212.09	5.440
212.31	3.951
212.52	6.300
212.74	2.124
212.95	3.034
213.17	3.708
213.38	5.980
213.60	9.766
213.81	12.815
214.02	11.696
214.24	11.593
214.45	6.593
214.67	4.414
214.88	1.901
215.10	4.327
215.31	3.400
215.53	1.967
215.74	3.668
215.95	4.032
216.17	2.173
216.38	1.184
216.60	0.555
216.81	4.761
217.03	4.971
217.24	7.038
217.45	6.122
217.67	8.510
217.88	8.337
218.10	5.933
218.31	3.643
218.53	3.248
218.74	2.652
218.95	0.375
219.17	-3.071
219.38	-3.557
219.60	-2.233
219.81	-0.927
220.03	-0.797
220.24	-0.490
220.45	0.683
220.67	1.188
220.88	2.385
221.10	3.874
221.31	5.196
221.53	6.594
221.74	5.684
221.95	3.984
222.17	2.551
222.38	2.356
222.60	2.273
222.81	0.970
223.02	0.952
223.24	0.772
223.45	1.201
223.67	0.853
223.88	0.695
224.09	1.614
224.31	1.955
224.52	3.870
224.74	3.157
224.95	3.780
225.16	5.087
225.38	4.337
225.59	4.273
225.81	3.779
226.02	3.757
226.23	3.136
226.45	3.406
226.66	3.111
226.88	2.848
227.09	3.224
227.30	2.790
227.52	2.852
227.73	2.842
227.95	2.757
228.16	2.843
228.37	2.869
228.59	2.973
228.80	2.958
229.02	2.989
229.23	2.990
229.44	2.958
229.66	2.957
229.87	2.936
230.08	2.955
230.30	2.920
230.51	2.885
230.73	2.893
230.94	2.806
231.15	2.669
231.37	2.754
231.58	2.665
231.80	2.562
232.01	2.618
232.22	2.478
232.44	2.681
232.65	2.806
232.86	2.562
233.08	2.532
233.29	2.679
233.51	2.817
233.72	2.734
233.93	2.704
234.15	2.790
234.36	3.011
234.57	2.918
234.79	2.880
235.00	3.088
235.21	3.458
235.43	3.560
235.64	3.570
235.86	3.429
236.07	3.169
236.28	2.975
236.50	2.726
236.71	2.723
236.92	2.791
237.14	2.848
237.35	2.540
237.56	2.822
237.78	2.533
237.99	2.424
238.20	2.488
238.42	2.686
238.63	2.954
238.84	3.379
239.06	3.012
239.27	2.884
239.48	2.711
239.70	2.877
239.91	2.449
240.13	2.493
240.34	2.535
240.55	2.529
240.77	2.642
240.98	2.599
241.19	2.637
241.41	2.646
241.62	2.597
241.83	2.548
242.05	2.484
242.26	2.480
242.47	2.465
242.69	2.440
242.90	2.483
243.11	2.440
243.33	2.385
243.54	2.230
243.75	2.251
243.97	2.237
244.18	2.267
244.39	2.284
244.61	2.208
244.82	2.292
245.03	2.283
245.24	2.228
245.46	2.276
245.67	2.348
245.88	2.350
246.10	2.366
246.31	2.363
246.52	2.352
246.74	2.344
246.95	2.349
247.16	2.312
247.38	2.314
247.59	2.324
247.80	2.353
248.02	2.347
248.23	2.359
248.44	2.330
248.66	2.351
248.87	2.390
249.08	2.435
249.29	2.524
249.51	2.656
249.72	2.754
249.93	2.848
250.15	2.768
250.36	2.717
250.57	2.650
250.79	2.809
251.00	2.784
251.21	2.765
251.42	2.661
251.64	2.462
251.85	2.491
252.06	2.499
252.28	2.316
252.49	2.388
252.70	2.418
252.91	2.465
253.13	2.474
253.34	2.487
253.55	2.476
253.77	2.499
253.98	2.801
254.19	2.722
254.40	2.607
254.62	2.743
254.83	2.449
255.04	2.555
255.26	2.571
255.47	2.219
255.68	2.143
255.89	2.068
256.11	2.066
256.32	1.666
256.53	1.696
256.75	1.747
256.96	1.852
257.17	1.949
257.38	2.019
257.60	2.123
257.81	2.253
258.02	2.210
258.23	2.151
258.45	2.064
258.66	2.176
258.87	2.121
259.09	2.066
259.30	2.041
259.51	2.030
259.72	1.997
259.94	1.954
260.15	1.939
260.36	1.968
260.57	2.003
260.79	2.034
261.00	2.029
261.21	2.040
261.42	2.107
261.64	2.088
261.85	2.097
262.06	2.135
262.27	2.172
262.49	2.161
262.70	2.196
262.91	2.174
263.12	2.101
263.34	2.094
263.55	2.074
263.76	1.910
263.97	2.079
264.19	2.166
264.40	2.065
264.61	2.015
264.82	2.019
265.04	1.934
265.25	1.877
265.46	1.874
265.67	1.900
265.88	1.835
266.10	1.862
266.31	1.721
266.52	1.686
266.73	1.778
266.95	1.801
267.16	1.859
267.37	1.854
267.58	1.784
267.80	1.905
268.01	1.865
268.22	1.884
268.43	1.964
268.64	2.072
268.86	2.047
269.07	1.966
269.28	1.910
269.49	1.817
269.71	1.817
269.92	1.826
270.13	1.852
270.34	1.899
270.55	2.013
270.77	2.021
270.98	1.962
271.19	2.039
271.40	2.064
271.61	2.026
271.83	2.102
272.04	2.091
272.25	2.191
272.46	2.121
272.68	2.157
272.89	2.079
273.10	2.035
273.31	2.012
273.52	1.994
273.74	1.988
273.95	1.992
274.16	2.069
274.37	2.099
274.58	2.177
274.80	2.200
275.01	2.169
275.22	2.170
275.43	2.218
275.64	2.235
275.86	2.217
276.07	2.125
276.28	2.266
276.49	2.188
276.70	2.134
276.91	1.964
277.13	1.923
277.34	1.877
277.55	1.977
277.76	1.945
277.97	1.922
278.19	1.920
278.40	2.059
278.61	2.049
278.82	2.044
279.03	1.990
279.24	1.966
279.46	2.013
279.67	2.029
279.88	1.868
280.09	1.827
280.30	1.891
280.52	1.904
280.73	1.821
280.94	1.773
281.15	1.736
281.36	1.878
281.57	1.934
281.79	1.938
282.00	1.947
282.21	1.936
282.42	2.009
282.63	2.029
282.84	1.967
283.06	1.964
283.27	1.995
283.48	1.926
283.69	1.821
283.90	1.814
284.11	1.780
284.32	1.693
284.54	1.741
284.75	1.681
284.96	1.554
285.17	1.611
285.38	1.631
285.59	1.570
285.81	1.650
286.02	1.692
286.23	1.666
286.44	1.649
286.65	1.694
286.86	1.713
287.07	1.670
287.29	1.737
287.50	1.766
287.71	1.716
287.92	1.713
288.13	1.673
288.34	1.664
288.55	1.730
288.77	1.713
288.98	1.679
289.19	1.668
289.40	1.769
289.61	1.803
289.82	1.760
290.03	1.757
290.24	1.805
290.46	1.769
290.67	1.803
290.88	1.752
291.09	1.724
291.30	1.752
291.51	1.733
291.72	1.756
291.93	1.775
292.15	1.725
292.36	1.861
292.57	1.825
292.78	1.832
292.99	1.767
293.20	1.862
293.41	1.883
293.62	1.973
293.84	2.030
294.05	1.945
294.26	1.904
294.47	1.887
294.68	1.753
294.89	1.808
295.10	1.844
295.31	1.866
295.52	1.817
295.73	1.817
295.95	1.714
296.16	1.700
296.37	1.752
296.58	1.797
296.79	1.858
297.00	1.896
297.21	1.851
297.42	1.801
297.63	1.796
297.84	1.847
298.06	1.826
298.27	1.841
298.48	1.849
298.69	1.744
298.90	1.688
299.11	1.662
299.32	1.633
299.53	1.675
299.74	1.749
299.95	1.780
300.16	1.650
300.38	1.732
300.59	1.689
300.80	1.658
301.01	1.677
301.22	1.640
301.43	1.608
301.64	1.619
301.85	1.572
302.06	1.546
302.27	1.475
302.48	1.601
302.69	1.514
302.91	1.639
303.12	1.695
303.33	1.703
303.54	1.777
303.75	1.786
303.96	1.806
304.17	1.814
304.38	1.765
304.59	1.813
304.80	1.762
305.01	1.790
305.22	1.684
305.43	1.646
305.64	1.728
305.85	1.616
306.06	1.646
306.28	1.644
306.49	1.629
306.70	1.564
306.91	1.459
307.12	1.393
307.33	1.341
307.54	1.376
307.75	1.378
307.96	1.306
308.17	1.327
308.38	1.289
308.59	1.274
308.80	1.313
309.01	1.369
309.22	1.462
309.43	1.474
309.64	1.528
309.85	1.501
310.06	1.441
310.27	1.496
310.48	1.532
310.70	1.522
310.91	1.531
311.12	1.502
311.33	1.526
311.54	1.419
311.75	1.421
311.96	1.405
312.17	1.413
312.38	1.465
312.59	1.475
312.80	1.429
313.01	1.426
313.22	1.431
313.43	1.437
313.64	1.409
313.85	1.497
314.06	1.486
314.27	1.508
314.48	1.587
314.69	1.604
314.90	1.627
315.11	1.668
315.32	1.628
315.53	1.643
315.74	1.636
315.95	1.651
316.16	1.636
316.37	1.605
316.58	1.616
316.79	1.524
317.00	1.510
317.21	1.410
317.42	1.410
317.63	1.491
317.84	1.357
318.05	1.275
318.26	1.217
318.47	1.240
318.68	1.315
318.89	1.289
319.10	1.343
319.31	1.281
319.52	1.322
319.73	1.324
319.94	1.309
320.15	1.346
320.36	1.437
320.57	1.439
320.78	1.400
320.99	1.297
321.20	1.248
321.41	1.161
321.62	1.162
321.83	1.124
322.04	1.138
322.25	1.110
322.46	1.087
322.67	1.062
322.88	1.069
323.09	1.051
323.30	1.088
323.51	1.080
323.72	1.111
323.93	1.137
324.14	1.186
324.35	1.199
324.56	1.222
324.77	1.262
324.98	1.233
325.19	1.238
325.40	1.279
325.61	1.252
325.82	1.284
326.03	1.277
326.24	1.287
326.45	1.271
326.65	1.206
326.86	1.180
327.07	1.195
327.28	1.177
327.49	1.206
327.70	1.170
327.91	1.230
328.12	1.226
328.33	1.205
328.54	1.203
328.75	1.210
328.96	1.321
329.17	1.286
329.38	1.272
329.59	1.337
329.80	1.375
330.01	1.437
330.22	1.362
330.43	1.357
330.64	1.340
330.85	1.359
331.05	1.307
331.26	1.199
331.47	1.175
331.68	1.195
331.89	1.217
332.10	1.130
332.31	1.134
332.52	1.203
332.73	1.182
332.94	1.231
333.15	1.183
333.36	1.238
333.57	1.236
333.78	1.296
333.99	1.304
334.19	1.251
334.40	1.282
334.61	1.302
334.82	1.253
335.03	1.207
335.24	1.244
335.45	1.263
335.66	1.280
335.87	1.333
336.08	1.357
336.29	1.338
336.50	1.335
336.71	1.424
336.91	1.378
337.12	1.336
337.33	1.422
337.54	1.401
337.75	1.399
337.96	1.299
338.17	1.276
338.38	1.234
338.59	1.258
338.80	1.203
339.01	1.117
339.21	1.072
339.42	1.125
339.63	1.061
339.84	1.078
340.05	1.023
340.26	0.982
340.47	0.971
340.68	0.976
340.89	0.944
341.10	0.971
341.30	0.966
341.51	0.995
341.72	1.042
341.93	1.090
342.14	1.003
342.35	1.045
342.56	1.127
342.77	1.166
342.98	1.107
343.18	1.126
343.39	1.157
343.60	1.137
343.81	1.136
344.02	1.126
344.23	1.126
344.44	1.148
344.65	1.092
344.85	1.080
345.06	1.042
345.27	1.088
345.48	1.052
345.69	1.074
345.90	1.119
346.11	1.124
346.32	1.075
346.52	1.038
346.73	1.038
346.94	1.091
347.15	1.128
347.36	1.134
347.57	1.172
347.78	1.174
347.98	1.156
348.19	1.085
348.40	1.109
348.61	1.152
348.82	1.183
349.03	1.216
349.24	1.219
349.44	1.175
349.65	1.164
349.86	1.135
350.07	1.167
350.28	1.154
350.49	1.180
350.70	1.112
350.90	1.061
351.11	1.011
351.32	0.987
351.53	1.022
351.74	1.028
351.95	0.993
352.15	1.011
352.36	0.960
352.57	0.977
352.78	1.050
352.99	1.061
353.20	1.130
353.40	1.180
353.61	1.179
353.82	1.143
354.03	1.173
354.24	1.191
354.45	1.216
354.65	1.254
354.86	1.226
355.07	1.200
355.28	1.263
355.49	1.220
355.70	1.180
355.90	1.143
356.11	1.139
356.32	1.130
356.53	1.142
356.74	1.129
356.94	1.100
357.15	1.095
357.36	1.061
357.57	1.025
357.78	1.035
357.99	1.069
358.19	1.110
358.40	1.094
358.61	1.094
358.82	1.155
359.03	1.151
359.23	1.172
359.44	1.225
359.65	1.238
359.86	1.256
360.07	1.281
360.27	1.316
360.48	1.329
360.69	1.371
360.90	1.351
361.11	1.342
361.31	1.322
361.52	1.342
361.73	1.336
361.94	1.356
362.15	1.316
362.35	1.263
362.56	1.255
362.77	1.233
362.98	1.237
363.18	1.232
363.39	1.195
363.60	1.209
363.81	1.216
364.02	1.215
364.22	1.218
364.43	1.249
364.64	1.285
364.85	1.253
365.05	1.265
365.26	1.243
365.47	1.275
365.68	1.249
365.89	1.266
366.09	1.268
366.30	1.260
366.51	1.252
366.72	1.246
366.92	1.264
367.13	1.305
367.34	1.321
367.55	1.315
367.75	1.306
367.96	1.358
368.17	1.331
368.38	1.318
368.58	1.322
368.79	1.280
369.00	1.271
369.21	1.240
369.41	1.209
369.62	1.186
369.83	1.179
370.04	1.150
370.24	1.149
370.45	1.164
370.66	1.163
370.87	1.129
371.07	1.134
371.28	1.167
371.49	1.160
371.70	1.144
371.90	1.149
372.11	1.131
372.32	1.178
372.53	1.174
372.73	1.153
372.94	1.115
373.15	1.132
373.36	1.138
373.56	1.134
373.77	1.136
373.98	1.156
374.19	1.189
374.39	1.218
374.60	1.209
374.81	1.191
375.01	1.204
375.22	1.197
375.43	1.208
375.64	1.208
375.84	1.199
376.05	1.225
376.26	1.227
376.46	1.204
376.67	1.174
376.88	1.176
377.09	1.170
377.29	1.170
377.50	1.192
377.71	1.220
377.91	1.254
378.12	1.247
378.33	1.259
378.54	1.271
378.74	1.258
378.95	1.297
379.16	1.289
379.36	1.271
379.57	1.281
379.78	1.314
379.99	1.299
380.19	1.266
380.40	1.238
380.61	1.226
380.81	1.177
381.02	1.185
381.23	1.172
381.43	1.189
381.64	1.239
381.85	1.239
382.05	1.189
382.26	1.172
382.47	1.188
382.67	1.202
382.88	1.194
383.09	1.232
383.30	1.251
383.50	1.288
383.71	1.271
383.92	1.253
384.12	1.236
384.33	1.244
384.54	1.247
384.74	1.250
384.95	1.231
385.16	1.230
385.36	1.210
385.57	1.178
385.78	1.148
385.98	1.156
386.19	1.156
386.40	1.176
386.60	1.174
386.81	1.152
387.02	1.149
387.22	1.167
387.43	1.159
387.64	1.181
387.84	1.209
388.05	1.225
388.26	1.217
388.46	1.233
388.67	1.231
388.88	1.232
389.08	1.264
389.29	1.243
389.49	1.227
389.70	1.229
389.91	1.208
390.11	1.184
390.32	1.171
390.53	1.187
390.73	1.164
390.94	1.157
391.15	1.176
391.35	1.170
391.56	1.191
391.77	1.213
391.97	1.207
392.18	1.222
392.38	1.256
392.59	1.259
392.80	1.243
393.00	1.238
393.21	1.234
393.42	1.248
393.62	1.227
393.83	1.232
394.04	1.228
394.24	1.214
394.45	1.210
394.65	1.201
394.86	1.192
395.07	1.191
395.27	1.196
395.48	1.162
395.68	1.158
395.89	1.194
396.10	1.183
396.30	1.165
396.51	1.224
396.72	1.243
396.92	1.226
397.13	1.211
397.33	1.187
397.54	1.192
397.75	1.222
397.95	1.230
398.16	1.184
398.36	1.183
398.57	1.197
398.78	1.153
398.98	1.144
399.19	1.143
399.39	1.159
399.60	1.186
399.81	1.190
400.01	1.190
400.22	1.170
400.42	1.211
400.63	1.194
400.84	1.217
401.04	1.251
401.25	1.248
401.45	1.253
401.66	1.273
401.86	1.276
402.07	1.272
402.28	1.286
402.48	1.301
402.69	1.313
402.89	1.331
403.10	1.322
403.31	1.298
403.51	1.285
403.72	1.297
403.92	1.282
404.13	1.275
404.33	1.266
404.54	1.267
404.75	1.259
404.95	1.260
405.16	1.254
405.36	1.258
405.57	1.271
405.77	1.291
405.98	1.286
406.18	1.283
406.39	1.269
406.60	1.278
406.80	1.267
407.01	1.263
407.21	1.267
407.42	1.274
407.62	1.281
407.83	1.261
408.03	1.234
408.24	1.245
408.45	1.230
408.65	1.238
408.86	1.264
409.06	1.288
409.27	1.290
409.47	1.267
409.68	1.278
409.88	1.298
410.09	1.310
410.29	1.332
410.50	1.326
410.71	1.350
410.91	1.364
411.12	1.338
411.32	1.318
411.53	1.313
411.73	1.317
411.94	1.276
412.14	1.285
412.35	1.280
412.55	1.273
412.76	1.278
412.96	1.289
413.17	1.296
413.37	1.288
413.58	1.305
413.78	1.325
413.99	1.342
414.19	1.399
414.40	1.373
414.61	1.386
414.81	1.384
415.02	1.377
415.22	1.354
415.43	1.346
415.63	1.368
415.84	1.366
416.04	1.347
416.25	1.317
416.45	1.286
416.66	1.293
416.86	1.282
417.07	1.268
417.27	1.259
417.48	1.260
417.68	1.266
417.89	1.253
418.09	1.254
418.30	1.257
418.50	1.256
418.71	1.266
418.91	1.260
419.12	1.263
419.32	1.273
419.53	1.272
419.73	1.281
419.94	1.281
420.14	1.283
420.34	1.281
420.55	1.286
420.75	1.297
420.96	1.297
421.16	1.293
421.37	1.293
421.57	1.309
421.78	1.323
421.98	1.317
422.19	1.317
422.39	1.335
422.60	1.319
422.80	1.314
423.01	1.310
423.21	1.309
423.42	1.307
423.62	1.304
423.83	1.285
424.03	1.277
424.23	1.284
424.44	1.277
424.64	1.262
424.85	1.284
425.05	1.291
425.26	1.308
425.46	1.335
425.67	1.336
425.87	1.342
426.08	1.361
426.28	1.361
426.48	1.379
426.69	1.406
426.89	1.424
427.10	1.434
427.30	1.450
427.51	1.454
427.71	1.421
427.92	1.410
428.12	1.406
428.32	1.387
428.53	1.374
428.73	1.368
428.94	1.336
429.14	1.339
429.35	1.309
429.55	1.310
429.76	1.304
429.96	1.306
430.16	1.338
430.37	1.358
430.57	1.363
430.78	1.416
430.98	1.404
431.19	1.413
431.39	1.398
431.59	1.390
431.80	1.380
432.00	1.347
432.21	1.348
432.41	1.325
432.61	1.316
432.82	1.322
433.02	1.303
433.23	1.303
433.43	1.312
433.64	1.317
433.84	1.338
434.04	1.327
434.25	1.346
434.45	1.348
434.66	1.349
434.86	1.352
435.06	1.360
435.27	1.349
435.47	1.345
435.68	1.329
435.88	1.339
436.08	1.338
436.29	1.342
436.49	1.354
436.70	1.342
436.90	1.350
437.10	1.352
437.31	1.337
437.51	1.334
437.71	1.339
437.92	1.342
438.12	1.327
438.33	1.317
438.53	1.323
438.73	1.313
438.94	1.321
439.14	1.326
439.35	1.323
439.55	1.345
439.75	1.362
439.96	1.369
440.16	1.378
440.36	1.385
440.57	1.392
440.77	1.389
440.97	1.396
441.18	1.402
441.38	1.404
441.59	1.417
441.79	1.392
441.99	1.383
442.20	1.355
442.40	1.348
442.60	1.350
442.81	1.341
443.01	1.346
443.21	1.332
443.42	1.311
443.62	1.316
443.83	1.306
444.03	1.329
444.23	1.353
444.44	1.367
444.64	1.363
444.84	1.366
445.05	1.371
445.25	1.355
445.45	1.370
445.66	1.371
445.86	1.377
446.06	1.379
446.27	1.383
446.47	1.362
446.67	1.374
446.88	1.379
447.08	1.379
447.28	1.381
447.49	1.398
447.69	1.391
447.89	1.400
448.10	1.393
448.30	1.404
448.50	1.370
448.71	1.376
448.91	1.369
449.11	1.362
449.32	1.371
449.52	1.376
449.72	1.388
449.93	1.383
450.13	1.376
450.33	1.376
450.53	1.372
450.74	1.400
450.94	1.390
451.14	1.410
451.35	1.422
451.55	1.395
451.75	1.388
451.96	1.362
452.16	1.371
452.36	1.395
452.57	1.395
452.77	1.386
452.97	1.383
453.17	1.396
453.38	1.391
453.58	1.382
453.78	1.390
453.99	1.393
454.19	1.404
454.39	1.406
454.59	1.391
454.80	1.391
455.00	1.417
455.20	1.407
455.41	1.390
455.61	1.375
455.81	1.388
456.01	1.410
456.22	1.424
456.42	1.424
456.62	1.424
456.83	1.423
457.03	1.427
457.23	1.394
457.43	1.410
457.64	1.440
457.84	1.441
458.04	1.432
458.25	1.418
458.45	1.410
458.65	1.406
458.85	1.402
459.06	1.400
459.26	1.400
459.46	1.414
459.66	1.419
459.87	1.416
460.07	1.419
460.27	1.427
460.47	1.428
460.68	1.427
460.88	1.432
461.08	1.429
461.28	1.438
461.49	1.436
461.69	1.432
461.89	1.430
462.09	1.434
462.30	1.430
462.50	1.429
462.70	1.433
462.90	1.421
463.11	1.432
463.31	1.444
463.51	1.426
463.71	1.424
463.92	1.431
464.12	1.413
464.32	1.414
464.52	1.411
464.72	1.410
464.93	1.412
465.13	1.424
465.33	1.407
465.53	1.388
465.74	1.415
465.94	1.416
466.14	1.418
466.34	1.420
466.54	1.411
466.75	1.420
466.95	1.410
467.15	1.413
467.35	1.415
467.56	1.430
467.76	1.449
467.96	1.447
468.16	1.443
468.36	1.422
468.57	1.447
468.77	1.454
468.97	1.448
469.17	1.452
469.37	1.438
469.58	1.447
469.78	1.428
469.98	1.431
470.18	1.416
470.38	1.422
470.59	1.434
470.79	1.424
470.99	1.416
471.19	1.417
471.39	1.436
471.60	1.430
471.80	1.425
472.00	1.437
472.20	1.440
472.40	1.461
472.61	1.464
472.81	1.471
473.01	1.459
473.21	1.466
473.41	1.469
473.61	1.464
473.82	1.498
474.02	1.487
474.22	1.481
474.42	1.474
474.62	1.470
474.82	1.468
475.03	1.488
475.23	1.493
475.43	1.509
475.63	1.520
475.83	1.510
476.03	1.489
476.24	1.491
476.44	1.512
476.64	1.518
476.84	1.506
477.04	1.508
477.24	1.492
477.45	1.499
477.65	1.495
477.85	1.490
478.05	1.483
478.25	1.477
478.45	1.485
478.65	1.487
478.86	1.480
479.06	1.477
479.26	1.483
479.46	1.492
479.66	1.487
479.86	1.483
480.06	1.482
480.27	1.499
480.47	1.496
480.67	1.494
480.87	1.480
481.07	1.491
481.27	1.507
481.47	1.509
481.68	1.498
481.88	1.502
482.08	1.517
482.28	1.524
482.48	1.521
482.68	1.522
482.88	1.514
483.08	1.523
483.29	1.519
483.49	1.506
483.69	1.496
483.89	1.495
484.09	1.499
484.29	1.493
484.49	1.493
484.69	1.493
484.89	1.500
485.10	1.507
485.30	1.508
485.50	1.515
485.70	1.534
485.90	1.548
486.10	1.560
486.30	1.557
486.50	1.554
486.70	1.545
486.90	1.542
487.11	1.534
487.31	1.531
487.51	1.521
487.71	1.513
487.91	1.516
488.11	1.513
488.31	1.516
488.51	1.517
488.71	1.521
