OOIBase32 Version 2.0.6.5 Data File
++++++++++++++++++++++++++++++++++++
Date: 11-17-2016, 11:09:17
User: Valued Ocean Optics Customer
Spectrometer Serial Number: USB4C01507
Spectrometer Channel: Master
Integration Time (msec): 49
Spectra Averaged: 25
Boxcar Smoothing: 5
Correct for Electrical Dark: Enabled
Time Normalized: Disabled
Dual-beam Reference: Disabled
Reference Channel: Master
Temperature: Not acquired
Spectrometer Type: S4000
ADC Type: USB4000
Number of Pixels in File: 3648
Graph Title: 
>>>>>Begin Spectral Data<<<<<
178.53	1611.326
178.74	2209.654
178.96	133.273
179.18	-74.777
179.39	467.967
179.61	-218.590
179.82	113.641
180.04	71.216
180.25	179.518
180.47	-74.386
180.69	141.653
180.90	804.702
181.12	-307.819
181.33	-18.897
181.55	39.746
181.76	-10526.920
181.98	29.501
182.20	-247.866
182.41	6.193
182.63	462.537
182.84	59.822
183.06	47.232
183.27	43.840
183.49	50.450
183.71	58.547
183.92	51.140
184.14	37.932
184.35	50.632
184.57	44.295
184.78	51.261
185.00	58.050
185.21	62.808
185.43	62.259
185.65	62.324
185.86	65.092
186.08	65.545
186.29	64.267
186.51	64.852
186.72	62.422
186.94	58.143
187.15	61.341
187.37	55.982
187.58	55.866
187.80	60.919
188.02	61.267
188.23	56.723
188.45	56.570
188.66	58.819
188.88	60.866
189.09	60.320
189.31	66.652
189.52	63.837
189.74	65.721
189.95	68.880
190.17	76.464
190.38	81.922
190.60	81.370
190.82	83.678
191.03	71.478
191.25	66.556
191.46	65.748
191.68	60.091
191.89	59.435
192.11	49.750
192.32	42.285
192.54	32.950
192.75	28.090
192.97	35.492
193.18	30.304
193.40	37.467
193.61	34.481
193.83	32.112
194.04	32.274
194.26	35.707
194.48	33.295
194.69	38.995
194.91	38.990
195.12	40.426
195.34	36.944
195.55	37.213
195.77	28.579
195.98	34.542
196.20	33.525
196.41	29.514
196.63	26.179
196.84	36.253
197.06	33.883
197.27	35.457
197.49	37.463
197.70	32.849
197.92	28.187
198.13	30.297
198.35	22.090
198.56	21.111
198.78	21.374
198.99	19.927
199.21	14.715
199.42	14.126
199.64	13.303
199.85	8.536
200.07	14.623
200.28	20.505
200.50	24.724
200.71	31.054
200.93	33.302
201.14	34.066
201.36	38.311
201.57	46.077
201.79	46.646
202.00	47.057
202.22	45.925
202.43	44.277
202.65	41.471
202.86	35.783
203.08	30.202
203.29	28.271
203.51	28.977
203.72	28.951
203.94	24.155
204.15	24.177
204.37	23.952
204.58	26.255
204.80	26.610
205.01	29.257
205.22	29.388
205.44	32.516
205.65	28.959
205.87	29.248
206.08	28.405
206.30	28.368
206.51	24.871
206.73	25.186
206.94	23.550
207.16	19.414
207.37	16.887
207.59	19.735
207.80	20.459
208.02	24.246
208.23	25.753
208.45	24.669
208.66	18.413
208.88	19.600
209.09	20.297
209.30	19.054
209.52	20.092
209.73	21.000
209.95	24.208
210.16	21.170
210.38	21.593
210.59	19.284
210.81	16.257
211.02	19.045
211.24	16.978
211.45	13.213
211.66	16.486
211.88	18.637
212.09	19.470
212.31	17.665
212.52	18.423
212.74	17.554
212.95	14.261
213.17	15.588
213.38	19.166
213.60	22.672
213.81	26.107
214.02	25.285
214.24	22.636
214.45	19.101
214.67	16.718
214.88	15.990
215.10	15.172
215.31	16.275
215.53	16.326
215.74	14.398
215.95	13.493
216.17	11.191
216.38	6.586
216.60	5.905
216.81	8.426
217.03	9.305
217.24	9.233
217.45	11.134
217.67	11.511
217.88	13.001
218.10	13.248
218.31	14.566
218.53	14.202
218.74	16.846
218.95	14.915
219.17	13.379
219.38	13.258
219.60	14.697
219.81	12.712
220.03	13.889
220.24	13.188
220.45	11.217
220.67	8.598
220.88	9.684
221.10	9.548
221.31	10.563
221.53	10.786
221.74	8.430
221.95	7.356
222.17	6.660
222.38	6.298
222.60	6.353
222.81	6.079
223.02	6.712
223.24	6.188
223.45	6.723
223.67	7.131
223.88	6.651
224.09	7.796
224.31	8.134
224.52	9.527
224.74	8.155
224.95	7.944
225.16	8.436
225.38	8.014
225.59	7.526
225.81	6.695
226.02	5.996
226.23	5.599
226.45	5.775
226.66	5.127
226.88	4.655
227.09	5.071
227.30	4.573
227.52	4.303
227.73	4.115
227.95	3.937
228.16	3.950
228.37	3.895
228.59	3.986
228.80	3.942
229.02	3.907
229.23	3.844
229.44	3.772
229.66	3.809
229.87	3.801
230.08	3.762
230.30	3.879
230.51	3.945
230.73	4.027
230.94	4.051
231.15	3.840
231.37	3.987
231.58	4.073
231.80	4.165
232.01	4.148
232.22	4.259
232.44	4.560
232.65	4.457
232.86	4.026
233.08	4.087
233.29	3.954
233.51	4.312
233.72	4.198
233.93	4.142
234.15	4.062
234.36	3.951
234.57	3.901
234.79	3.852
235.00	4.081
235.21	4.539
235.43	4.717
235.64	4.499
235.86	4.494
236.07	4.520
236.28	4.501
236.50	4.369
236.71	4.741
236.92	4.661
237.14	4.810
237.35	4.745
237.56	4.572
237.78	4.486
237.99	4.783
238.20	4.617
238.42	4.998
238.63	4.559
238.84	4.835
239.06	4.676
239.27	4.502
239.48	4.360
239.70	4.246
239.91	4.113
240.13	3.872
240.34	3.879
240.55	3.932
240.77	3.649
240.98	3.806
241.19	3.745
241.41	3.496
241.62	3.604
241.83	3.567
242.05	3.603
242.26	3.672
242.47	3.691
242.69	3.680
242.90	3.740
243.11	3.845
243.33	3.895
243.54	3.895
243.75	4.064
243.97	4.009
244.18	4.221
244.39	4.243
244.61	4.166
244.82	4.354
245.03	4.250
245.24	4.139
245.46	4.100
245.67	3.940
245.88	3.924
246.10	3.916
246.31	3.888
246.52	3.783
246.74	3.721
246.95	3.739
247.16	3.719
247.38	3.727
247.59	3.751
247.80	3.722
248.02	3.788
248.23	3.780
248.44	3.777
248.66	3.866
248.87	3.916
249.08	4.011
249.29	4.062
249.51	4.221
249.72	4.348
249.93	4.350
250.15	4.558
250.36	4.482
250.57	4.429
250.79	4.675
251.00	4.573
251.21	4.610
251.42	4.575
251.64	4.514
251.85	4.339
252.06	4.373
252.28	4.275
252.49	4.247
252.70	4.226
252.91	4.362
253.13	4.250
253.34	4.210
253.55	4.206
253.77	4.258
253.98	4.381
254.19	4.377
254.40	4.284
254.62	4.400
254.83	4.124
255.04	4.330
255.26	4.065
255.47	3.927
255.68	4.113
255.89	4.239
256.11	4.292
256.32	4.060
256.53	4.227
256.75	4.152
256.96	4.146
257.17	4.380
257.38	4.481
257.60	4.644
257.81	4.590
258.02	4.379
258.23	4.199
258.45	4.041
258.66	4.005
258.87	3.834
259.09	3.784
259.30	3.735
259.51	3.665
259.72	3.556
259.94	3.512
260.15	3.505
260.36	3.544
260.57	3.577
260.79	3.596
261.00	3.571
261.21	3.587
261.42	3.605
261.64	3.651
261.85	3.629
262.06	3.721
262.27	3.877
262.49	3.953
262.70	4.018
262.91	3.883
263.12	3.873
263.34	4.030
263.55	3.983
263.76	3.867
263.97	3.881
264.19	4.017
264.40	3.988
264.61	3.855
264.82	3.833
265.04	3.746
265.25	3.765
265.46	3.742
265.67	3.621
265.88	3.694
266.10	3.744
266.31	3.726
266.52	3.693
266.73	3.795
266.95	3.719
267.16	3.701
267.37	3.629
267.58	3.628
267.80	3.680
268.01	3.657
268.22	3.654
268.43	3.740
268.64	3.715
268.86	3.739
269.07	3.624
269.28	3.623
269.49	3.596
269.71	3.682
269.92	3.602
270.13	3.601
270.34	3.646
270.55	3.664
270.77	3.728
270.98	3.736
271.19	3.766
271.40	3.741
271.61	3.727
271.83	3.760
272.04	3.680
272.25	3.775
272.46	3.706
272.68	3.789
272.89	3.775
273.10	3.688
273.31	3.601
273.52	3.606
273.74	3.538
273.95	3.522
274.16	3.558
274.37	3.578
274.58	3.518
274.80	3.573
275.01	3.503
275.22	3.575
275.43	3.716
275.64	3.838
275.86	3.741
276.07	3.833
276.28	3.960
276.49	3.848
276.70	3.771
276.91	3.822
277.13	3.764
277.34	3.744
277.55	3.806
277.76	3.636
277.97	3.548
278.19	3.569
278.40	3.682
278.61	3.567
278.82	3.644
279.03	3.655
279.24	3.633
279.46	3.688
279.67	3.701
279.88	3.488
280.09	3.565
280.30	3.670
280.52	3.695
280.73	3.633
280.94	3.715
281.15	3.715
281.36	3.730
281.57	3.782
281.79	3.821
282.00	3.752
282.21	3.772
282.42	3.701
282.63	3.694
282.84	3.642
283.06	3.584
283.27	3.501
283.48	3.475
283.69	3.450
283.90	3.356
284.11	3.260
284.32	3.256
284.54	3.321
284.75	3.322
284.96	3.262
285.17	3.302
285.38	3.320
285.59	3.386
285.81	3.449
286.02	3.572
286.23	3.619
286.44	3.702
286.65	3.828
286.86	3.825
287.07	3.843
287.29	3.897
287.50	3.903
287.71	3.941
287.92	3.995
288.13	3.962
288.34	3.929
288.55	4.002
288.77	4.010
288.98	3.925
289.19	3.968
289.40	4.029
289.61	4.172
289.82	4.207
290.03	4.244
290.24	4.232
290.46	4.225
290.67	4.276
290.88	4.321
291.09	4.336
291.30	4.405
291.51	4.487
291.72	4.572
291.93	4.579
292.15	4.649
292.36	4.799
292.57	4.951
292.78	4.942
292.99	4.878
293.20	4.980
293.41	4.946
293.62	5.000
293.84	4.998
294.05	5.070
294.26	4.981
294.47	4.963
294.68	4.894
294.89	4.925
295.10	5.045
295.31	5.169
295.52	5.107
295.73	5.148
295.95	5.193
296.16	5.226
296.37	5.255
296.58	5.318
296.79	5.388
297.00	5.423
297.21	5.353
297.42	5.351
297.63	5.380
297.84	5.394
298.06	5.384
298.27	5.398
298.48	5.467
298.69	5.387
298.90	5.459
299.11	5.509
299.32	5.574
299.53	5.668
299.74	5.752
299.95	5.756
300.16	5.755
300.38	5.858
300.59	5.821
300.80	5.802
301.01	5.992
301.22	5.967
301.43	5.951
301.64	5.959
301.85	5.984
302.06	5.965
302.27	5.968
302.48	6.041
302.69	6.059
302.91	6.189
303.12	6.286
303.33	6.273
303.54	6.361
303.75	6.364
303.96	6.417
304.17	6.427
304.38	6.514
304.59	6.613
304.80	6.659
305.01	6.741
305.22	6.717
305.43	6.756
305.64	6.755
305.85	6.694
306.06	6.838
306.28	6.903
306.49	6.996
306.70	6.978
306.91	6.982
307.12	6.995
307.33	6.999
307.54	7.083
307.75	7.050
307.96	7.118
308.17	7.232
308.38	7.220
308.59	7.217
308.80	7.243
309.01	7.328
309.22	7.367
309.43	7.410
309.64	7.441
309.85	7.472
310.06	7.516
310.27	7.610
310.48	7.673
310.70	7.720
310.91	7.741
311.12	7.685
311.33	7.712
311.54	7.713
311.75	7.717
311.96	7.782
312.17	7.806
312.38	7.842
312.59	7.837
312.80	7.849
313.01	7.893
313.22	7.961
313.43	8.082
313.64	8.080
313.85	8.133
314.06	8.280
314.27	8.309
314.48	8.433
314.69	8.580
314.90	8.673
315.11	8.677
315.32	8.674
315.53	8.748
315.74	8.795
315.95	8.875
316.16	8.911
316.37	8.912
316.58	9.013
316.79	9.000
317.00	9.019
317.21	8.956
317.42	9.005
317.63	9.182
317.84	9.207
318.05	9.242
318.26	9.345
318.47	9.457
318.68	9.588
318.89	9.633
319.10	9.717
319.31	9.688
319.52	9.845
319.73	9.927
319.94	9.954
320.15	10.007
320.36	10.159
320.57	10.189
320.78	10.294
320.99	10.289
321.20	10.375
321.41	10.487
321.62	10.551
321.83	10.585
322.04	10.664
322.25	10.729
322.46	10.781
322.67	10.835
322.88	10.935
323.09	10.961
323.30	10.969
323.51	10.970
323.72	11.026
323.93	11.095
324.14	11.218
324.35	11.280
324.56	11.302
324.77	11.348
324.98	11.395
325.19	11.431
325.40	11.508
325.61	11.642
325.82	11.744
326.03	11.840
326.24	11.932
326.45	11.955
326.65	11.951
326.86	11.964
327.07	12.092
327.28	12.197
327.49	12.293
327.70	12.299
327.91	12.355
328.12	12.412
328.33	12.398
328.54	12.443
328.75	12.536
328.96	12.643
329.17	12.738
329.38	12.692
329.59	12.647
329.80	12.694
330.01	12.798
330.22	12.819
330.43	12.849
330.64	12.916
330.85	12.992
331.05	13.018
331.26	13.072
331.47	13.107
331.68	13.242
331.89	13.384
332.10	13.427
332.31	13.567
332.52	13.657
332.73	13.720
332.94	13.768
333.15	13.799
333.36	13.912
333.57	13.986
333.78	14.085
333.99	14.165
334.19	14.191
334.40	14.326
334.61	14.343
334.82	14.395
335.03	14.474
335.24	14.558
335.45	14.683
335.66	14.710
335.87	14.793
336.08	14.881
336.29	14.956
336.50	15.031
336.71	15.065
336.91	15.118
337.12	15.160
337.33	15.256
337.54	15.349
337.75	15.423
337.96	15.466
338.17	15.528
338.38	15.529
338.59	15.600
338.80	15.629
339.01	15.690
339.21	15.740
339.42	15.821
339.63	15.831
339.84	15.893
340.05	15.934
340.26	15.973
340.47	16.025
340.68	16.141
340.89	16.155
341.10	16.203
341.30	16.241
341.51	16.293
341.72	16.390
341.93	16.485
342.14	16.478
342.35	16.567
342.56	16.626
342.77	16.682
342.98	16.695
343.18	16.746
343.39	16.829
343.60	16.880
343.81	16.959
344.02	16.953
344.23	17.046
344.44	17.111
344.65	17.094
344.85	17.113
345.06	17.233
345.27	17.338
345.48	17.392
345.69	17.465
345.90	17.548
346.11	17.576
346.32	17.665
346.52	17.645
346.73	17.707
346.94	17.768
347.15	17.875
347.36	17.835
347.57	17.870
347.78	17.939
347.98	18.040
348.19	18.035
348.40	18.104
348.61	18.199
348.82	18.285
349.03	18.430
349.24	18.511
349.44	18.540
349.65	18.652
349.86	18.703
350.07	18.776
350.28	18.746
350.49	18.817
350.70	18.850
350.90	18.833
351.11	18.886
351.32	18.875
351.53	18.954
351.74	19.040
351.95	19.063
352.15	19.110
352.36	19.139
352.57	19.284
352.78	19.416
352.99	19.500
353.20	19.618
353.40	19.704
353.61	19.729
353.82	19.756
354.03	19.843
354.24	19.903
354.45	19.966
354.65	20.067
354.86	20.078
355.07	20.130
355.28	20.188
355.49	20.212
355.70	20.230
355.90	20.330
356.11	20.351
356.32	20.397
356.53	20.491
356.74	20.563
356.94	20.542
357.15	20.664
357.36	20.686
357.57	20.750
357.78	20.820
357.99	20.843
358.19	20.862
358.40	20.931
358.61	20.961
358.82	21.030
359.03	21.031
359.23	21.153
359.44	21.145
359.65	21.182
359.86	21.235
360.07	21.319
360.27	21.471
360.48	21.557
360.69	21.694
360.90	21.757
361.11	21.902
361.31	21.984
361.52	22.068
361.73	22.156
361.94	22.243
362.15	22.271
362.35	22.290
362.56	22.318
362.77	22.344
362.98	22.372
363.18	22.438
363.39	22.366
363.60	22.451
363.81	22.428
364.02	22.479
364.22	22.569
364.43	22.624
364.64	22.684
364.85	22.716
365.05	22.793
365.26	22.834
365.47	22.885
365.68	22.957
365.89	22.967
366.09	23.097
366.30	23.132
366.51	23.157
366.72	23.218
366.92	23.313
367.13	23.371
367.34	23.410
367.55	23.443
367.75	23.522
367.96	23.569
368.17	23.625
368.38	23.645
368.58	23.629
368.79	23.643
369.00	23.729
369.21	23.745
369.41	23.806
369.62	23.849
369.83	23.903
370.04	23.926
370.24	23.972
370.45	24.057
370.66	24.104
370.87	24.174
371.07	24.205
371.28	24.257
371.49	24.314
371.70	24.341
371.90	24.392
372.11	24.431
372.32	24.503
372.53	24.573
372.73	24.627
372.94	24.647
373.15	24.755
373.36	24.835
373.56	24.897
373.77	24.945
373.98	25.046
374.19	25.106
374.39	25.160
374.60	25.200
374.81	25.242
375.01	25.302
375.22	25.388
375.43	25.391
375.64	25.455
375.84	25.487
376.05	25.559
376.26	25.559
376.46	25.614
376.67	25.668
376.88	25.721
377.09	25.773
377.29	25.841
377.50	25.856
377.71	25.975
377.91	26.017
378.12	26.073
378.33	26.144
378.54	26.205
378.74	26.269
378.95	26.352
379.16	26.402
379.36	26.446
379.57	26.459
379.78	26.549
379.99	26.612
380.19	26.615
380.40	26.620
380.61	26.628
380.81	26.666
381.02	26.706
381.23	26.719
381.43	26.750
381.64	26.841
381.85	26.884
382.05	26.921
382.26	26.957
382.47	27.050
382.67	27.146
382.88	27.185
383.09	27.306
383.30	27.393
383.50	27.508
383.71	27.597
383.92	27.622
384.12	27.670
384.33	27.714
384.54	27.774
384.74	27.870
384.95	27.919
385.16	27.973
385.36	27.983
385.57	28.020
385.78	28.057
385.98	28.112
386.19	28.165
386.40	28.241
386.60	28.318
386.81	28.364
387.02	28.396
387.22	28.437
387.43	28.550
387.64	28.634
387.84	28.671
388.05	28.738
388.26	28.809
388.46	28.870
388.67	28.928
388.88	28.984
389.08	29.038
389.29	29.095
389.49	29.163
389.70	29.175
389.91	29.213
390.11	29.252
390.32	29.281
390.53	29.327
390.73	29.403
390.94	29.498
391.15	29.552
391.35	29.611
391.56	29.700
391.77	29.793
391.97	29.861
392.18	29.949
392.38	30.050
392.59	30.118
392.80	30.166
393.00	30.215
393.21	30.248
393.42	30.324
393.62	30.399
393.83	30.421
394.04	30.433
394.24	30.446
394.45	30.441
394.65	30.470
394.86	30.526
395.07	30.563
395.27	30.590
395.48	30.642
395.68	30.684
395.89	30.688
396.10	30.737
396.30	30.808
396.51	30.886
396.72	30.982
396.92	31.030
397.13	31.064
397.33	31.128
397.54	31.185
397.75	31.252
397.95	31.292
398.16	31.361
398.36	31.420
398.57	31.469
398.78	31.540
398.98	31.586
399.19	31.664
399.39	31.731
399.60	31.762
399.81	31.844
400.01	31.887
400.22	31.914
400.42	32.013
400.63	32.081
400.84	32.149
401.04	32.186
401.25	32.261
401.45	32.323
401.66	32.360
401.86	32.464
402.07	32.494
402.28	32.551
402.48	32.661
402.69	32.690
402.89	32.736
403.10	32.806
403.31	32.883
403.51	32.935
403.72	32.999
403.92	33.056
404.13	33.105
404.33	33.144
404.54	33.206
404.75	33.262
404.95	33.320
405.16	33.371
405.36	33.423
405.57	33.469
405.77	33.545
405.98	33.572
406.18	33.633
406.39	33.635
406.60	33.693
406.80	33.736
407.01	33.786
407.21	33.783
407.42	33.868
407.62	33.896
407.83	33.932
408.03	33.923
408.24	33.969
408.45	34.010
408.65	34.081
408.86	34.140
409.06	34.141
409.27	34.159
409.47	34.244
409.68	34.234
409.88	34.296
410.09	34.347
410.29	34.418
410.50	34.473
410.71	34.532
410.91	34.604
411.12	34.649
411.32	34.736
411.53	34.785
411.73	34.831
411.94	34.874
412.14	34.919
412.35	34.974
412.55	35.004
412.76	35.041
412.96	35.077
413.17	35.115
413.37	35.186
413.58	35.257
413.78	35.300
413.99	35.367
414.19	35.486
414.40	35.545
414.61	35.601
414.81	35.669
415.02	35.693
415.22	35.756
415.43	35.819
415.63	35.858
415.84	35.904
416.04	36.008
416.25	36.063
416.45	36.100
416.66	36.150
416.86	36.212
417.07	36.239
417.27	36.283
417.48	36.329
417.68	36.398
417.89	36.447
418.09	36.500
418.30	36.535
418.50	36.561
418.71	36.615
418.91	36.660
419.12	36.728
419.32	36.808
419.53	36.899
419.73	36.976
419.94	37.011
420.14	37.011
420.34	37.028
420.55	37.031
420.75	37.077
420.96	37.102
421.16	37.139
421.37	37.152
421.57	37.216
421.78	37.241
421.98	37.272
422.19	37.309
422.39	37.412
422.60	37.520
422.80	37.588
423.01	37.646
423.21	37.661
423.42	37.679
423.62	37.673
423.83	37.636
424.03	37.653
424.23	37.656
424.44	37.682
424.64	37.703
424.85	37.714
425.05	37.763
425.26	37.806
425.46	37.878
425.67	37.946
425.87	38.058
426.08	38.140
426.28	38.194
426.48	38.289
426.69	38.348
426.89	38.407
427.10	38.455
427.30	38.511
427.51	38.543
427.71	38.553
427.92	38.553
428.12	38.569
428.32	38.602
428.53	38.646
428.73	38.649
428.94	38.672
429.14	38.677
429.35	38.672
429.55	38.668
429.76	38.661
429.96	38.695
430.16	38.761
430.37	38.774
430.57	38.800
430.78	38.854
430.98	38.891
431.19	38.921
431.39	38.968
431.59	39.012
431.80	39.031
432.00	39.033
432.21	39.024
432.41	39.001
432.61	39.008
432.82	39.035
433.02	39.054
433.23	39.083
433.43	39.127
433.64	39.170
433.84	39.232
434.04	39.299
434.25	39.400
434.45	39.479
434.66	39.583
434.86	39.659
435.06	39.713
435.27	39.770
435.47	39.848
435.68	39.868
435.88	39.891
436.08	39.861
436.29	39.850
436.49	39.837
436.70	39.851
436.90	39.845
437.10	39.898
437.31	39.938
437.51	39.992
437.71	40.008
437.92	40.049
438.12	40.032
438.33	40.073
438.53	40.108
438.73	40.124
438.94	40.171
439.14	40.221
439.35	40.257
439.55	40.337
439.75	40.344
439.96	40.406
440.16	40.438
440.36	40.497
440.57	40.511
440.77	40.568
440.97	40.620
441.18	40.663
441.38	40.708
441.59	40.730
441.79	40.701
441.99	40.773
442.20	40.755
442.40	40.802
442.60	40.844
442.81	40.927
443.01	40.953
443.21	41.008
443.42	41.028
443.62	41.020
443.83	41.047
444.03	41.072
444.23	41.064
444.44	41.105
444.64	41.135
444.84	41.142
445.05	41.135
445.25	41.131
445.45	41.114
445.66	41.112
445.86	41.127
446.06	41.159
446.27	41.179
446.47	41.193
446.67	41.215
446.88	41.235
447.08	41.276
447.28	41.339
447.49	41.399
447.69	41.476
447.89	41.533
448.10	41.610
448.30	41.630
448.50	41.674
448.71	41.715
448.91	41.734
449.11	41.711
449.32	41.736
449.52	41.717
449.72	41.732
449.93	41.725
450.13	41.774
450.33	41.795
450.53	41.807
450.74	41.830
450.94	41.838
451.14	41.863
451.35	41.934
451.55	41.929
451.75	41.947
451.96	41.973
452.16	41.962
452.36	41.957
452.57	41.972
452.77	41.992
452.97	42.011
453.17	42.054
453.38	42.076
453.58	42.085
453.78	42.098
453.99	42.133
454.19	42.135
454.39	42.190
454.59	42.223
454.80	42.232
455.00	42.260
455.20	42.304
455.41	42.337
455.61	42.359
455.81	42.408
456.01	42.481
456.22	42.480
456.42	42.539
456.62	42.583
456.83	42.615
457.03	42.639
457.23	42.639
457.43	42.638
457.64	42.646
457.84	42.697
458.04	42.766
458.25	42.798
458.45	42.874
458.65	42.867
458.85	42.850
459.06	42.809
459.26	42.785
459.46	42.784
459.66	42.798
459.87	42.779
460.07	42.789
460.27	42.754
460.47	42.735
460.68	42.733
460.88	42.736
461.08	42.765
461.28	42.820
461.49	42.870
461.69	42.920
461.89	42.928
462.09	42.982
462.30	42.965
462.50	43.001
462.70	43.032
462.90	43.015
463.11	43.053
463.31	43.087
463.51	43.111
463.71	43.142
463.92	43.172
464.12	43.192
464.32	43.211
464.52	43.231
464.72	43.247
464.93	43.260
465.13	43.291
465.33	43.307
465.53	43.289
465.74	43.267
465.94	43.263
466.14	43.250
466.34	43.254
466.54	43.206
466.75	43.169
466.95	43.167
467.15	43.169
467.35	43.159
467.56	43.183
467.76	43.224
467.96	43.260
468.16	43.303
468.36	43.326
468.57	43.367
468.77	43.450
468.97	43.514
469.17	43.532
469.37	43.577
469.58	43.611
469.78	43.616
469.98	43.628
470.18	43.669
470.38	43.683
470.59	43.723
470.79	43.776
470.99	43.796
471.19	43.814
471.39	43.884
471.60	43.929
471.80	43.981
472.00	44.000
472.20	44.013
472.40	44.001
472.61	44.012
472.81	44.021
473.01	44.004
473.21	44.029
473.41	44.061
473.61	44.028
473.82	44.029
474.02	44.026
474.22	44.058
474.42	44.079
474.62	44.165
474.82	44.220
475.03	44.301
475.23	44.337
475.43	44.383
475.63	44.440
475.83	44.508
