OOIBase32 Version 2.0.6.5 Data File
++++++++++++++++++++++++++++++++++++
Date: 11-17-2016, 11:08:58
User: Valued Ocean Optics Customer
Spectrometer Serial Number: USB4C01507
Spectrometer Channel: Master
Integration Time (msec): 49
Spectra Averaged: 25
Boxcar Smoothing: 5
Correct for Electrical Dark: Enabled
Time Normalized: Disabled
Dual-beam Reference: Disabled
Reference Channel: Master
Temperature: Not acquired
Spectrometer Type: S4000
ADC Type: USB4000
Number of Pixels in File: 3648
Graph Title: 
>>>>>Begin Spectral Data<<<<<
178.53	1661.567
178.74	2208.514
178.96	50.098
179.18	-21.648
179.39	448.913
179.61	-34.782
179.82	178.404
180.04	86.129
180.25	142.960
180.47	-190.514
180.69	0.534
180.90	802.556
181.12	49.359
181.33	305.305
181.55	15.655
181.76	-5998.427
181.98	-0.365
182.20	-142.418
182.41	25.062
182.63	256.342
182.84	55.516
183.06	52.907
183.27	50.456
183.49	50.162
183.71	57.300
183.92	52.590
184.14	45.207
184.35	48.130
184.57	48.735
184.78	31.675
185.00	37.001
185.21	40.250
185.43	49.039
185.65	45.872
185.86	54.553
186.08	52.389
186.29	53.048
186.51	59.074
186.72	53.769
186.94	53.462
187.15	64.934
187.37	67.247
187.58	64.540
187.80	52.462
188.02	46.457
188.23	43.782
188.45	42.896
188.66	43.103
188.88	41.245
189.09	45.748
189.31	59.461
189.52	48.092
189.74	46.938
189.95	56.689
190.17	61.700
190.38	75.875
190.60	80.828
190.82	81.046
191.03	72.285
191.25	64.657
191.46	66.152
191.68	56.678
191.89	62.093
192.11	53.288
192.32	43.073
192.54	42.667
192.75	38.705
192.97	32.267
193.18	33.719
193.40	39.376
193.61	41.566
193.83	45.519
194.04	41.429
194.26	42.895
194.48	45.983
194.69	54.253
194.91	50.460
195.12	49.762
195.34	50.747
195.55	45.859
195.77	37.382
195.98	43.910
196.20	37.645
196.41	30.710
196.63	23.343
196.84	25.636
197.06	26.066
197.27	28.262
197.49	26.346
197.70	28.012
197.92	32.463
198.13	40.378
198.35	33.869
198.56	35.110
198.78	35.630
198.99	37.918
199.21	35.147
199.42	32.555
199.64	37.258
199.85	38.751
200.07	34.739
200.28	33.175
200.50	27.828
200.71	33.883
200.93	36.857
201.14	38.724
201.36	43.648
201.57	44.846
201.79	41.744
202.00	37.520
202.22	40.491
202.43	40.339
202.65	40.412
202.86	43.184
203.08	39.741
203.29	36.648
203.51	37.352
203.72	35.411
203.94	33.671
204.15	36.199
204.37	38.868
204.58	34.108
204.80	36.417
205.01	35.982
205.22	34.860
205.44	33.173
205.65	30.859
205.87	28.141
206.08	29.180
206.30	29.050
206.51	28.321
206.73	22.619
206.94	20.682
207.16	18.452
207.37	18.818
207.59	18.266
207.80	19.098
208.02	20.504
208.23	22.403
208.45	20.382
208.66	19.006
208.88	20.489
209.09	23.529
209.30	28.419
209.52	24.097
209.73	21.657
209.95	25.093
210.16	25.392
210.38	28.079
210.59	26.900
210.81	27.570
211.02	27.322
211.24	24.539
211.45	22.934
211.66	21.345
211.88	22.830
212.09	20.405
212.31	18.510
212.52	18.102
212.74	14.600
212.95	14.402
213.17	12.760
213.38	16.497
213.60	16.363
213.81	17.380
214.02	17.139
214.24	18.723
214.45	20.470
214.67	17.139
214.88	17.615
215.10	17.645
215.31	17.270
215.53	17.410
215.74	15.259
215.95	16.055
216.17	12.745
216.38	12.292
216.60	12.065
216.81	13.135
217.03	15.845
217.24	15.509
217.45	17.382
217.67	17.382
217.88	16.345
218.10	16.524
218.31	16.357
218.53	18.091
218.74	16.326
218.95	12.979
219.17	11.093
219.38	10.526
219.60	11.644
219.81	11.745
220.03	12.819
220.24	13.265
220.45	12.068
220.67	11.772
220.88	12.000
221.10	13.944
221.31	14.421
221.53	14.641
221.74	13.651
221.95	12.450
222.17	10.564
222.38	10.480
222.60	10.774
222.81	10.097
223.02	9.950
223.24	8.702
223.45	7.730
223.67	7.815
223.88	7.446
224.09	8.121
224.31	8.469
224.52	9.565
224.74	8.172
224.95	7.865
225.16	8.098
225.38	7.711
225.59	8.297
225.81	7.650
226.02	7.322
226.23	7.082
226.45	6.862
226.66	6.181
226.88	6.074
227.09	6.607
227.30	6.004
227.52	5.931
227.73	5.560
227.95	5.344
228.16	5.283
228.37	5.206
228.59	5.263
228.80	5.165
229.02	5.103
229.23	5.015
229.44	4.894
229.66	4.950
229.87	4.936
230.08	5.051
230.30	5.137
230.51	5.297
230.73	5.427
230.94	5.481
231.15	5.329
231.37	5.559
231.58	5.573
231.80	5.724
232.01	5.928
232.22	5.838
232.44	5.931
232.65	5.905
232.86	5.751
233.08	5.492
233.29	5.318
233.51	5.704
233.72	5.627
233.93	5.648
234.15	5.435
234.36	5.256
234.57	5.351
234.79	5.419
235.00	5.445
235.21	5.816
235.43	6.110
235.64	5.957
235.86	5.975
236.07	5.943
236.28	5.722
236.50	5.770
236.71	6.008
236.92	6.081
237.14	5.985
237.35	6.063
237.56	5.794
237.78	5.965
237.99	6.232
238.20	6.331
238.42	6.515
238.63	6.519
238.84	6.479
239.06	6.372
239.27	6.074
239.48	6.014
239.70	5.948
239.91	5.717
240.13	5.453
240.34	5.457
240.55	5.431
240.77	5.400
240.98	5.395
241.19	5.414
241.41	5.130
241.62	5.071
241.83	4.958
242.05	4.935
242.26	5.032
242.47	5.041
242.69	4.943
242.90	4.887
243.11	4.862
243.33	4.842
243.54	4.804
243.75	5.085
243.97	5.113
244.18	5.359
244.39	5.413
244.61	5.225
244.82	5.307
245.03	5.434
245.24	5.445
245.46	5.303
245.67	5.292
245.88	5.255
246.10	5.050
246.31	5.066
246.52	4.900
246.74	4.840
246.95	4.842
247.16	4.839
247.38	4.810
247.59	4.826
247.80	4.839
248.02	4.828
248.23	4.793
248.44	4.856
248.66	4.814
248.87	4.923
249.08	5.025
249.29	5.181
249.51	5.262
249.72	5.408
249.93	5.477
250.15	5.634
250.36	5.708
250.57	5.706
250.79	5.822
251.00	5.874
251.21	5.770
251.42	5.597
251.64	5.400
251.85	5.379
252.06	5.451
252.28	5.258
252.49	5.158
252.70	5.162
252.91	5.246
253.13	5.148
253.34	5.100
253.55	5.160
253.77	5.213
253.98	5.478
254.19	5.301
254.40	5.115
254.62	5.285
254.83	5.165
255.04	5.111
255.26	5.093
255.47	4.965
255.68	4.972
255.89	5.040
256.11	5.116
256.32	4.859
256.53	5.033
256.75	5.092
256.96	5.178
257.17	5.408
257.38	5.497
257.60	5.496
257.81	5.481
258.02	5.405
258.23	5.175
258.45	5.061
258.66	5.051
258.87	4.952
259.09	4.803
259.30	4.729
259.51	4.612
259.72	4.572
259.94	4.511
260.15	4.488
260.36	4.522
260.57	4.548
260.79	4.561
261.00	4.546
261.21	4.495
261.42	4.586
261.64	4.586
261.85	4.685
262.06	4.742
262.27	4.929
262.49	5.005
262.70	5.036
262.91	5.070
263.12	5.009
263.34	4.935
263.55	4.924
263.76	4.795
263.97	4.915
264.19	5.060
264.40	4.977
264.61	4.923
264.82	4.970
265.04	4.907
265.25	4.824
265.46	4.872
265.67	4.882
265.88	4.960
266.10	4.830
266.31	4.742
266.52	4.675
266.73	4.772
266.95	4.696
267.16	4.625
267.37	4.587
267.58	4.560
267.80	4.562
268.01	4.590
268.22	4.507
268.43	4.636
268.64	4.667
268.86	4.631
269.07	4.557
269.28	4.480
269.49	4.506
269.71	4.465
269.92	4.393
270.13	4.494
270.34	4.451
270.55	4.600
270.77	4.700
270.98	4.617
271.19	4.619
271.40	4.547
271.61	4.546
271.83	4.567
272.04	4.511
272.25	4.611
272.46	4.516
272.68	4.555
272.89	4.463
273.10	4.411
273.31	4.436
273.52	4.455
273.74	4.469
273.95	4.506
274.16	4.587
274.37	4.744
274.58	4.774
274.80	4.828
275.01	4.788
275.22	4.841
275.43	4.805
275.64	4.838
275.86	4.798
276.07	4.757
276.28	4.865
276.49	4.800
276.70	4.730
276.91	4.702
277.13	4.640
277.34	4.632
277.55	4.680
277.76	4.669
277.97	4.586
278.19	4.527
278.40	4.642
278.61	4.495
278.82	4.440
279.03	4.372
279.24	4.391
279.46	4.390
279.67	4.389
279.88	4.272
280.09	4.349
280.30	4.409
280.52	4.509
280.73	4.467
280.94	4.570
281.15	4.500
281.36	4.609
281.57	4.621
281.79	4.681
282.00	4.722
282.21	4.722
282.42	4.642
282.63	4.696
282.84	4.653
283.06	4.714
283.27	4.716
283.48	4.731
283.69	4.622
283.90	4.539
284.11	4.486
284.32	4.444
284.54	4.467
284.75	4.396
284.96	4.273
285.17	4.316
285.38	4.284
285.59	4.276
285.81	4.308
286.02	4.418
286.23	4.442
286.44	4.547
286.65	4.627
286.86	4.637
287.07	4.667
287.29	4.701
287.50	4.709
287.71	4.753
287.92	4.807
288.13	4.815
288.34	4.834
288.55	4.959
288.77	4.917
288.98	4.843
289.19	4.920
289.40	5.055
289.61	5.188
289.82	5.197
290.03	5.159
290.24	5.209
290.46	5.283
290.67	5.269
290.88	5.316
291.09	5.274
291.30	5.343
291.51	5.417
291.72	5.506
291.93	5.556
292.15	5.578
292.36	5.832
292.57	5.889
292.78	5.888
292.99	5.950
293.20	6.013
293.41	6.022
293.62	6.076
293.84	6.073
294.05	5.965
294.26	5.910
294.47	5.993
294.68	5.927
294.89	6.004
295.10	6.116
295.31	6.181
295.52	6.086
295.73	6.123
295.95	6.198
296.16	6.264
296.37	6.388
296.58	6.503
296.79	6.521
297.00	6.519
297.21	6.445
297.42	6.382
297.63	6.378
297.84	6.421
298.06	6.480
298.27	6.488
298.48	6.581
298.69	6.555
298.90	6.564
299.11	6.697
299.32	6.754
299.53	6.854
299.74	6.951
299.95	7.048
300.16	7.041
300.38	7.166
300.59	7.096
300.80	7.008
301.01	6.998
301.22	6.908
301.43	6.854
301.64	6.808
301.85	6.779
302.06	6.813
302.27	6.800
302.48	6.916
302.69	6.803
302.91	6.934
303.12	7.006
303.33	7.123
303.54	7.247
303.75	7.207
303.96	7.276
304.17	7.293
304.38	7.340
304.59	7.404
304.80	7.422
305.01	7.487
305.22	7.488
305.43	7.536
305.64	7.510
305.85	7.549
306.06	7.629
306.28	7.731
306.49	7.807
306.70	7.746
306.91	7.740
307.12	7.726
307.33	7.706
307.54	7.797
307.75	7.793
307.96	7.848
308.17	7.814
308.38	7.871
308.59	7.870
308.80	7.919
309.01	8.096
309.22	8.167
309.43	8.228
309.64	8.374
309.85	8.383
310.06	8.447
310.27	8.586
310.48	8.664
310.70	8.694
310.91	8.746
311.12	8.765
311.33	8.750
311.54	8.763
311.75	8.794
311.96	8.859
312.17	8.875
312.38	8.891
312.59	8.867
312.80	8.930
313.01	9.005
313.22	9.048
313.43	9.121
313.64	9.189
313.85	9.257
314.06	9.331
314.27	9.328
314.48	9.513
314.69	9.637
314.90	9.768
315.11	9.817
315.32	9.868
315.53	9.891
315.74	9.897
315.95	10.030
316.16	10.124
316.37	10.145
316.58	10.195
316.79	10.140
317.00	10.143
317.21	10.044
317.42	10.083
317.63	10.111
317.84	10.212
318.05	10.220
318.26	10.204
318.47	10.159
318.68	10.256
318.89	10.347
319.10	10.425
319.31	10.459
319.52	10.620
319.73	10.705
319.94	10.765
320.15	10.848
320.36	11.046
320.57	11.078
320.78	11.184
320.99	11.190
321.20	11.261
321.41	11.338
321.62	11.379
321.83	11.404
322.04	11.426
322.25	11.487
322.46	11.522
322.67	11.589
322.88	11.665
323.09	11.715
323.30	11.745
323.51	11.726
323.72	11.789
323.93	11.882
324.14	11.989
324.35	12.074
324.56	12.159
324.77	12.140
324.98	12.149
325.19	12.238
325.40	12.347
325.61	12.510
325.82	12.598
326.03	12.651
326.24	12.720
326.45	12.762
326.65	12.795
326.86	12.816
327.07	12.930
327.28	12.995
327.49	13.014
327.70	12.997
327.91	13.033
328.12	13.084
328.33	13.134
328.54	13.207
328.75	13.315
328.96	13.437
329.17	13.542
329.38	13.549
329.59	13.583
329.80	13.675
330.01	13.782
330.22	13.824
330.43	13.886
330.64	13.931
330.85	13.981
331.05	13.981
331.26	14.009
331.47	14.029
331.68	14.131
331.89	14.230
332.10	14.302
332.31	14.348
332.52	14.414
332.73	14.455
332.94	14.546
333.15	14.620
333.36	14.738
333.57	14.828
333.78	14.924
333.99	14.960
334.19	15.014
334.40	15.074
334.61	15.225
334.82	15.335
335.03	15.415
335.24	15.492
335.45	15.552
335.66	15.585
335.87	15.638
336.08	15.682
336.29	15.790
336.50	15.844
336.71	15.948
336.91	15.981
337.12	15.927
337.33	16.013
337.54	16.066
337.75	16.093
337.96	16.054
338.17	16.169
338.38	16.230
338.59	16.297
338.80	16.292
339.01	16.313
339.21	16.356
339.42	16.461
339.63	16.486
339.84	16.546
340.05	16.607
340.26	16.687
340.47	16.623
340.68	16.697
340.89	16.716
341.10	16.805
341.30	16.877
341.51	16.867
341.72	16.977
341.93	17.039
342.14	17.071
342.35	17.165
342.56	17.226
342.77	17.303
342.98	17.284
343.18	17.333
343.39	17.436
343.60	17.459
343.81	17.541
344.02	17.580
344.23	17.658
344.44	17.700
344.65	17.740
344.85	17.799
345.06	17.878
345.27	17.936
345.48	17.981
345.69	18.063
345.90	18.170
346.11	18.255
346.32	18.264
346.52	18.289
346.73	18.364
346.94	18.424
347.15	18.511
347.36	18.530
347.57	18.601
347.78	18.709
347.98	18.760
348.19	18.765
348.40	18.807
348.61	18.894
348.82	18.977
349.03	19.054
349.24	19.133
349.44	19.198
349.65	19.303
349.86	19.398
350.07	19.468
350.28	19.478
350.49	19.532
350.70	19.559
350.90	19.581
351.11	19.595
351.32	19.612
351.53	19.657
351.74	19.713
351.95	19.695
352.15	19.776
352.36	19.787
352.57	19.820
352.78	19.906
352.99	20.016
353.20	20.148
353.40	20.242
353.61	20.280
353.82	20.302
354.03	20.393
354.24	20.517
354.45	20.564
354.65	20.661
354.86	20.761
355.07	20.802
355.28	20.873
355.49	20.932
355.70	20.992
355.90	21.064
356.11	21.128
356.32	21.120
356.53	21.190
356.74	21.237
356.94	21.281
357.15	21.313
357.36	21.364
357.57	21.380
357.78	21.415
357.99	21.413
358.19	21.510
358.40	21.540
358.61	21.603
358.82	21.703
359.03	21.740
359.23	21.834
359.44	21.958
359.65	22.032
359.86	22.131
360.07	22.152
360.27	22.293
360.48	22.390
360.69	22.521
360.90	22.639
361.11	22.754
361.31	22.849
361.52	22.897
361.73	22.956
361.94	23.007
362.15	23.010
362.35	23.068
362.56	23.128
362.77	23.157
362.98	23.240
363.18	23.244
363.39	23.190
363.60	23.263
363.81	23.297
364.02	23.317
364.22	23.408
364.43	23.490
364.64	23.590
364.85	23.634
365.05	23.701
365.26	23.699
365.47	23.807
365.68	23.861
365.89	23.835
366.09	23.896
366.30	23.928
366.51	23.950
366.72	24.010
366.92	24.094
367.13	24.149
367.34	24.178
367.55	24.232
367.75	24.284
367.96	24.382
368.17	24.487
368.38	24.556
368.58	24.582
368.79	24.624
369.00	24.653
369.21	24.652
369.41	24.693
369.62	24.734
369.83	24.775
370.04	24.830
370.24	24.868
370.45	24.899
370.66	24.949
370.87	25.005
371.07	25.034
371.28	25.109
371.49	25.179
371.70	25.244
371.90	25.268
372.11	25.334
372.32	25.374
372.53	25.424
372.73	25.550
372.94	25.554
373.15	25.667
373.36	25.766
373.56	25.838
373.77	25.901
373.98	25.937
374.19	26.034
374.39	26.095
374.60	26.132
374.81	26.170
375.01	26.208
375.22	26.320
375.43	26.379
375.64	26.456
375.84	26.503
376.05	26.563
376.26	26.618
376.46	26.634
376.67	26.675
376.88	26.748
377.09	26.816
377.29	26.847
377.50	26.896
377.71	26.931
377.91	26.976
378.12	27.046
378.33	27.130
378.54	27.173
378.74	27.283
378.95	27.346
379.16	27.432
379.36	27.469
379.57	27.528
379.78	27.564
379.99	27.656
380.19	27.654
380.40	27.657
380.61	27.674
380.81	27.758
381.02	27.787
381.23	27.846
381.43	27.856
381.64	27.952
381.85	28.019
382.05	28.109
382.26	28.164
382.47	28.272
382.67	28.362
382.88	28.439
383.09	28.515
383.30	28.590
383.50	28.658
383.71	28.742
383.92	28.787
384.12	28.824
384.33	28.843
384.54	28.859
384.74	28.922
384.95	28.983
385.16	29.053
385.36	29.085
385.57	29.126
385.78	29.182
385.98	29.238
386.19	29.309
386.40	29.370
386.60	29.478
386.81	29.561
387.02	29.625
387.22	29.685
387.43	29.741
387.64	29.809
387.84	29.884
388.05	29.950
388.26	30.001
388.46	30.038
388.67	30.134
388.88	30.165
389.08	30.233
389.29	30.272
389.49	30.309
389.70	30.319
389.91	30.361
390.11	30.417
390.32	30.470
390.53	30.557
390.73	30.671
390.94	30.721
391.15	30.788
391.35	30.838
391.56	30.940
391.77	31.064
391.97	31.178
392.18	31.258
392.38	31.361
392.59	31.469
392.80	31.535
393.00	31.540
393.21	31.621
393.42	31.708
393.62	31.791
393.83	31.848
394.04	31.855
394.24	31.879
394.45	31.955
394.65	31.982
394.86	32.027
395.07	32.059
395.27	32.118
395.48	32.133
395.68	32.203
395.89	32.253
396.10	32.293
396.30	32.360
396.51	32.459
396.72	32.495
396.92	32.572
397.13	32.637
397.33	32.740
397.54	32.809
397.75	32.900
397.95	32.935
398.16	33.021
398.36	33.075
398.57	33.170
398.78	33.201
398.98	33.278
399.19	33.336
399.39	33.369
399.60	33.393
399.81	33.473
400.01	33.530
400.22	33.602
400.42	33.673
400.63	33.743
400.84	33.799
401.04	33.869
401.25	33.918
401.45	33.967
401.66	34.071
401.86	34.153
402.07	34.222
402.28	34.325
402.48	34.382
402.69	34.429
402.89	34.503
403.10	34.599
403.31	34.691
403.51	34.788
403.72	34.871
403.92	34.931
404.13	35.002
404.33	35.076
404.54	35.132
404.75	35.187
404.95	35.271
405.16	35.358
405.36	35.415
405.57	35.454
405.77	35.527
405.98	35.576
406.18	35.610
406.39	35.633
406.60	35.653
406.80	35.684
407.01	35.770
407.21	35.791
407.42	35.799
407.62	35.813
407.83	35.853
408.03	35.881
408.24	35.945
408.45	35.990
408.65	36.120
408.86	36.207
409.06	36.303
409.27	36.346
409.47	36.416
409.68	36.494
409.88	36.590
410.09	36.665
410.29	36.719
410.50	36.765
410.71	36.826
410.91	36.830
411.12	36.846
411.32	36.876
411.53	36.918
411.73	36.965
411.94	37.041
412.14	37.085
412.35	37.131
412.55	37.195
412.76	37.286
412.96	37.349
413.17	37.405
413.37	37.502
413.58	37.567
413.78	37.661
413.99	37.753
414.19	37.830
414.40	37.899
414.61	37.980
414.81	38.042
415.02	38.061
415.22	38.139
415.43	38.253
415.63	38.332
415.84	38.422
416.04	38.479
416.25	38.539
416.45	38.603
416.66	38.691
416.86	38.756
417.07	38.805
417.27	38.867
417.48	38.914
417.68	38.938
417.89	38.974
418.09	39.031
418.30	39.104
418.50	39.146
418.71	39.216
418.91	39.267
419.12	39.321
419.32	39.408
419.53	39.533
419.73	39.643
419.94	39.735
420.14	39.802
420.34	39.802
420.55	39.813
420.75	39.854
420.96	39.884
421.16	39.895
421.37	39.929
421.57	39.989
421.78	39.996
421.98	40.035
422.19	40.086
422.39	40.145
422.60	40.268
422.80	40.360
423.01	40.434
423.21	40.468
423.42	40.508
423.62	40.543
423.83	40.547
424.03	40.552
424.23	40.552
424.44	40.549
424.64	40.581
424.85	40.594
425.05	40.628
425.26	40.679
425.46	40.755
425.67	40.827
425.87	40.898
426.08	40.974
426.28	41.042
426.48	41.112
426.69	41.187
426.89	41.242
427.10	41.300
427.30	41.358
427.51	41.385
427.71	41.373
427.92	41.396
428.12	41.420
428.32	41.424
428.53	41.495
428.73	41.549
428.94	41.591
429.14	41.611
429.35	41.634
429.55	41.670
429.76	41.725
429.96	41.773
430.16	41.863
430.37	41.922
430.57	41.988
430.78	42.057
430.98	42.110
431.19	42.161
431.39	42.243
431.59	42.263
431.80	42.306
432.00	42.290
432.21	42.303
432.41	42.306
432.61	42.324
432.82	42.333
433.02	42.352
433.23	42.370
433.43	42.394
433.64	42.402
433.84	42.457
434.04	42.491
434.25	42.577
434.45	42.662
434.66	42.747
434.86	42.817
435.06	42.897
435.27	42.952
435.47	43.034
435.68	43.078
435.88	43.146
436.08	43.193
436.29	43.230
436.49	43.262
436.70	43.279
436.90	43.294
437.10	43.370
437.31	43.420
437.51	43.474
437.71	43.510
437.92	43.593
438.12	43.619
438.33	43.674
438.53	43.717
438.73	43.737
438.94	43.792
439.14	43.848
439.35	43.904
439.55	43.960
439.75	44.018
439.96	44.077
440.16	44.104
440.36	44.137
440.57	44.148
440.77	44.192
440.97	44.259
441.18	44.310
441.38	44.332
441.59	44.362
441.79	44.382
441.99	44.385
442.20	44.400
442.40	44.443
442.60	44.515
442.81	44.602
443.01	44.659
443.21	44.699
443.42	44.718
443.62	44.788
443.83	44.825
444.03	44.885
444.23	44.910
444.44	44.946
444.64	44.980
444.84	45.009
445.05	45.030
445.25	45.034
445.45	45.045
445.66	45.082
445.86	45.082
446.06	45.081
446.27	45.078
446.47	45.111
446.67	45.143
446.88	45.168
447.08	45.194
447.28	45.233
447.49	45.285
447.69	45.331
447.89	45.351
448.10	45.432
448.30	45.482
448.50	45.507
448.71	45.518
448.91	45.504
449.11	45.497
449.32	45.537
449.52	45.535
449.72	45.555
449.93	45.559
450.13	45.614
450.33	45.608
450.53	45.624
450.74	45.701
450.94	45.777
451.14	45.858
451.35	45.927
451.55	45.948
451.75	45.995
451.96	46.004
452.16	46.055
452.36	46.066
452.57	46.104
452.77	46.130
452.97	46.145
453.17	46.168
453.38	46.191
453.58	46.208
453.78	46.199
453.99	46.196
454.19	46.261
454.39	46.329
454.59	46.388
454.80	46.390
455.00	46.422
455.20	46.464
455.41	46.494
455.61	46.525
455.81	46.598
456.01	46.682
456.22	46.734
456.42	46.763
456.62	46.777
456.83	46.790
457.03	46.854
457.23	46.896
457.43	46.942
457.64	46.978
457.84	47.024
458.04	47.094
458.25	47.181
458.45	47.291
458.65	47.322
458.85	47.365
459.06	47.363
459.26	47.328
459.46	47.323
459.66	47.306
459.87	47.285
460.07	47.294
460.27	47.268
460.47	47.223
460.68	47.173
460.88	47.157
461.08	47.129
461.28	47.154
461.49	47.196
461.69	47.244
461.89	47.272
462.09	47.338
462.30	47.350
462.50	47.400
462.70	47.455
462.90	47.505
463.11	47.537
463.31	47.584
463.51	47.609
463.71	47.689
463.92	47.733
464.12	47.807
464.32	47.838
464.52	47.880
464.72	47.879
464.93	47.904
465.13	47.936
465.33	47.987
465.53	47.964
465.74	47.969
465.94	47.953
466.14	47.907
466.34	47.880
466.54	47.838
466.75	47.827
466.95	47.815
467.15	47.818
467.35	47.802
467.56	47.813
467.76	47.866
467.96	47.905
468.16	47.944
468.36	47.999
468.57	48.053
468.77	48.124
468.97	48.170
469.17	48.204
469.37	48.242
469.58	48.297
469.78	48.315
469.98	48.333
470.18	48.379
470.38	48.425
470.59	48.490
470.79	48.565
470.99	48.614
471.19	48.656
471.39	48.721
471.60	48.796
471.80	48.813
472.00	48.861
472.20	48.898
472.40	48.887
472.61	48.884
472.81	48.887
473.01	48.846
473.21	48.862
473.41	48.865
473.61	48.873
473.82	48.875
474.02	48.918
474.22	48.926
474.42	48.961
474.62	49.052
474.82	49.133
475.03	49.223
475.23	49.275
475.43	49.343
