OOIBase32 Version 2.0.6.5 Data File
++++++++++++++++++++++++++++++++++++
Date: 11-17-2016, 11:08:03
User: Valued Ocean Optics Customer
Spectrometer Serial Number: USB4C01507
Spectrometer Channel: Master
Integration Time (msec): 49
Spectra Averaged: 25
Boxcar Smoothing: 5
Correct for Electrical Dark: Enabled
Time Normalized: Disabled
Dual-beam Reference: Disabled
Reference Channel: Master
Temperature: Not acquired
Spectrometer Type: S4000
ADC Type: USB4000
Number of Pixels in File: 3648
Graph Title: 
>>>>>Begin Spectral Data<<<<<
178.53	1585.899
178.74	2174.440
178.96	63.176
179.18	45.801
179.39	1100.837
179.61	-11.618
179.82	150.560
180.04	184.068
180.25	174.040
180.47	-223.618
180.69	126.049
180.90	561.695
181.12	-36.556
181.33	130.228
181.55	-1.203
181.76	10123.034
181.98	48.566
182.20	266.448
182.41	0.943
182.63	16.594
182.84	-7.062
183.06	-1.462
183.27	-7.794
183.49	-4.690
183.71	-8.302
183.92	-15.822
184.14	-26.715
184.35	-27.567
184.57	-35.407
184.78	-16.837
185.00	-9.601
185.21	-14.283
185.43	-2.868
185.65	6.349
185.86	-5.247
186.08	2.759
186.29	2.229
186.51	9.179
186.72	3.618
186.94	10.872
187.15	8.184
187.37	6.820
187.58	2.561
187.80	0.292
188.02	10.143
188.23	10.480
188.45	8.513
188.66	15.713
188.88	13.341
189.09	22.139
189.31	23.428
189.52	19.008
189.74	21.927
189.95	28.018
190.17	33.640
190.38	21.427
190.60	24.531
190.82	20.551
191.03	19.588
191.25	21.398
191.46	16.678
191.68	13.320
191.89	14.423
192.11	6.543
192.32	4.979
192.54	-2.252
192.75	4.562
192.97	0.215
193.18	1.376
193.40	0.202
193.61	-6.771
193.83	-0.485
194.04	-6.812
194.26	-1.150
194.48	1.371
194.69	2.724
194.91	3.483
195.12	-0.858
195.34	9.649
195.55	13.799
195.77	11.666
195.98	8.004
196.20	3.112
196.41	4.046
196.63	-0.704
196.84	1.241
197.06	0.703
197.27	-1.548
197.49	9.289
197.70	5.989
197.92	6.668
198.13	10.872
198.35	18.091
198.56	14.059
198.78	12.308
198.99	14.174
199.21	12.506
199.42	10.957
199.64	16.447
199.85	11.738
200.07	8.193
200.28	6.762
200.50	2.506
200.71	4.376
200.93	6.337
201.14	8.709
201.36	7.508
201.57	9.831
201.79	11.542
202.00	7.505
202.22	7.126
202.43	11.774
202.65	9.796
202.86	12.909
203.08	14.217
203.29	15.393
203.51	14.000
203.72	13.342
203.94	10.933
204.15	9.993
204.37	12.447
204.58	9.439
204.80	8.954
205.01	11.181
205.22	9.610
205.44	10.474
205.65	7.102
205.87	7.851
206.08	9.544
206.30	11.667
206.51	8.164
206.73	6.443
206.94	10.165
207.16	6.423
207.37	1.951
207.59	0.798
207.80	-0.226
208.02	-0.096
208.23	1.245
208.45	-2.172
208.66	-7.588
208.88	-4.713
209.09	-6.306
209.30	-6.273
209.52	-6.444
209.73	-3.537
209.95	-0.364
210.16	-4.977
210.38	-0.705
210.59	0.462
210.81	1.945
211.02	4.884
211.24	4.545
211.45	4.421
211.66	3.616
211.88	5.488
212.09	6.181
212.31	5.852
212.52	5.945
212.74	2.317
212.95	0.155
213.17	1.914
213.38	0.934
213.60	1.604
213.81	4.204
214.02	3.518
214.24	3.896
214.45	-0.207
214.67	-2.186
214.88	-1.625
215.10	0.275
215.31	-0.191
215.53	-3.025
215.74	-1.800
215.95	-0.388
216.17	-3.808
216.38	-4.450
216.60	-6.415
216.81	-3.978
217.03	-3.537
217.24	-4.629
217.45	-2.911
217.67	-2.943
217.88	-3.117
218.10	-2.383
218.31	-2.489
218.53	-1.378
218.74	-2.092
218.95	-3.622
219.17	-4.936
219.38	-2.940
219.60	1.710
219.81	1.243
220.03	1.623
220.24	3.710
220.45	3.312
220.67	2.094
220.88	3.432
221.10	4.195
221.31	4.954
221.53	5.428
221.74	3.011
221.95	0.566
222.17	-0.193
222.38	0.489
222.60	-0.398
222.81	-1.748
223.02	-1.371
223.24	-1.613
223.45	-1.647
223.67	-1.823
223.88	-1.521
224.09	-0.612
224.31	0.206
224.52	1.271
224.74	0.587
224.95	1.168
225.16	1.993
225.38	1.763
225.59	1.786
225.81	1.316
226.02	1.358
226.23	1.251
226.45	1.593
226.66	1.293
226.88	1.234
227.09	1.839
227.30	1.842
227.52	2.028
227.73	1.874
227.95	1.884
228.16	1.916
228.37	1.877
228.59	1.941
228.80	1.935
229.02	1.962
229.23	1.950
229.44	1.849
229.66	1.786
229.87	1.709
230.08	1.787
230.30	1.708
230.51	1.838
230.73	1.939
230.94	1.894
231.15	1.785
231.37	1.827
231.58	1.656
231.80	1.620
232.01	1.856
232.22	1.852
232.44	1.886
232.65	1.909
232.86	1.485
233.08	1.676
233.29	1.548
233.51	1.880
233.72	1.836
233.93	1.984
234.15	1.889
234.36	1.785
234.57	1.582
234.79	1.626
235.00	1.862
235.21	2.354
235.43	2.150
235.64	2.095
235.86	1.867
236.07	1.806
236.28	1.520
236.50	1.581
236.71	1.773
236.92	2.147
237.14	2.187
237.35	2.066
237.56	1.921
237.78	1.930
237.99	1.991
238.20	2.062
238.42	2.186
238.63	2.266
238.84	2.682
239.06	2.393
239.27	1.905
239.48	1.800
239.70	1.782
239.91	1.467
240.13	1.473
240.34	1.450
240.55	1.399
240.77	1.443
240.98	1.527
241.19	1.486
241.41	1.420
241.62	1.537
241.83	1.496
242.05	1.444
242.26	1.464
242.47	1.447
242.69	1.478
242.90	1.578
243.11	1.558
243.33	1.560
243.54	1.417
243.75	1.466
243.97	1.386
244.18	1.481
244.39	1.545
244.61	1.475
244.82	1.604
245.03	1.589
245.24	1.563
245.46	1.613
245.67	1.637
245.88	1.711
246.10	1.727
246.31	1.726
246.52	1.657
246.74	1.656
246.95	1.699
247.16	1.654
247.38	1.672
247.59	1.668
247.80	1.675
248.02	1.690
248.23	1.684
248.44	1.683
248.66	1.682
248.87	1.691
249.08	1.698
249.29	1.708
249.51	1.794
249.72	1.811
249.93	1.807
250.15	1.793
250.36	1.636
250.57	1.569
250.79	1.607
251.00	1.665
251.21	1.729
251.42	1.765
251.64	1.624
251.85	1.652
252.06	1.661
252.28	1.553
252.49	1.545
252.70	1.536
252.91	1.500
253.13	1.497
253.34	1.475
253.55	1.539
253.77	1.506
253.98	1.740
254.19	1.752
254.40	1.818
254.62	1.911
254.83	1.788
255.04	1.999
255.26	2.098
255.47	1.982
255.68	2.003
255.89	1.917
256.11	1.838
256.32	1.704
256.53	1.658
256.75	1.508
256.96	1.616
257.17	1.757
257.38	1.861
257.60	1.881
257.81	1.888
258.02	1.819
258.23	1.666
258.45	1.555
258.66	1.632
258.87	1.553
259.09	1.514
259.30	1.503
259.51	1.485
259.72	1.442
259.94	1.413
260.15	1.375
260.36	1.439
260.57	1.469
260.79	1.516
261.00	1.476
261.21	1.492
261.42	1.590
261.64	1.522
261.85	1.514
262.06	1.489
262.27	1.623
262.49	1.665
262.70	1.588
262.91	1.560
263.12	1.572
263.34	1.511
263.55	1.509
263.76	1.350
263.97	1.464
264.19	1.628
264.40	1.570
264.61	1.590
264.82	1.573
265.04	1.561
265.25	1.506
265.46	1.546
265.67	1.591
265.88	1.538
266.10	1.472
266.31	1.415
266.52	1.270
266.73	1.389
266.95	1.270
267.16	1.234
267.37	1.233
267.58	1.271
267.80	1.241
268.01	1.269
268.22	1.275
268.43	1.340
268.64	1.424
268.86	1.404
269.07	1.343
269.28	1.315
269.49	1.388
269.71	1.336
269.92	1.259
270.13	1.281
270.34	1.237
270.55	1.346
270.77	1.422
270.98	1.383
271.19	1.515
271.40	1.496
271.61	1.482
271.83	1.472
272.04	1.456
272.25	1.554
272.46	1.580
272.68	1.614
272.89	1.550
273.10	1.506
273.31	1.488
273.52	1.397
273.74	1.366
273.95	1.357
274.16	1.425
274.37	1.458
274.58	1.426
274.80	1.455
275.01	1.439
275.22	1.496
275.43	1.542
275.64	1.559
275.86	1.617
276.07	1.563
276.28	1.718
276.49	1.636
276.70	1.694
276.91	1.664
277.13	1.511
277.34	1.573
277.55	1.545
277.76	1.443
277.97	1.459
278.19	1.406
278.40	1.522
278.61	1.396
278.82	1.419
279.03	1.394
279.24	1.361
279.46	1.393
279.67	1.360
279.88	1.258
280.09	1.273
280.30	1.307
280.52	1.363
280.73	1.402
280.94	1.515
281.15	1.458
281.36	1.409
281.57	1.496
281.79	1.539
282.00	1.473
282.21	1.492
282.42	1.505
282.63	1.545
282.84	1.495
283.06	1.435
283.27	1.322
283.48	1.385
283.69	1.324
283.90	1.310
284.11	1.271
284.32	1.206
284.54	1.230
284.75	1.214
284.96	1.126
285.17	1.190
285.38	1.182
285.59	1.250
285.81	1.283
286.02	1.370
286.23	1.381
286.44	1.408
286.65	1.487
286.86	1.495
287.07	1.515
287.29	1.472
287.50	1.378
287.71	1.379
287.92	1.355
288.13	1.296
288.34	1.284
288.55	1.299
288.77	1.333
288.98	1.249
289.19	1.272
289.40	1.314
289.61	1.431
289.82	1.504
290.03	1.436
290.24	1.411
290.46	1.367
290.67	1.329
290.88	1.314
291.09	1.201
291.30	1.237
291.51	1.276
291.72	1.289
291.93	1.209
292.15	1.138
292.36	1.327
292.57	1.309
292.78	1.336
292.99	1.308
293.20	1.468
293.41	1.437
293.62	1.452
293.84	1.414
294.05	1.370
294.26	1.380
294.47	1.347
294.68	1.336
294.89	1.345
295.10	1.323
295.31	1.364
295.52	1.243
295.73	1.280
295.95	1.268
296.16	1.257
296.37	1.321
296.58	1.384
296.79	1.394
297.00	1.329
297.21	1.349
297.42	1.360
297.63	1.375
297.84	1.379
298.06	1.350
298.27	1.406
298.48	1.438
298.69	1.330
298.90	1.254
299.11	1.265
299.32	1.218
299.53	1.191
299.74	1.220
299.95	1.269
300.16	1.213
300.38	1.341
300.59	1.300
300.80	1.214
301.01	1.300
301.22	1.330
301.43	1.328
301.64	1.390
301.85	1.321
302.06	1.296
302.27	1.231
302.48	1.280
302.69	1.238
302.91	1.185
303.12	1.249
303.33	1.219
303.54	1.180
303.75	1.142
303.96	1.207
304.17	1.255
304.38	1.292
304.59	1.308
304.80	1.272
305.01	1.297
305.22	1.280
305.43	1.269
305.64	1.261
305.85	1.246
306.06	1.346
306.28	1.281
306.49	1.273
306.70	1.225
306.91	1.112
307.12	1.152
307.33	1.006
307.54	1.071
307.75	1.002
307.96	1.010
308.17	1.022
308.38	1.019
308.59	1.002
308.80	1.008
309.01	1.044
309.22	1.059
309.43	1.015
309.64	1.092
309.85	1.051
310.06	1.074
310.27	1.124
310.48	1.175
310.70	1.133
310.91	1.167
311.12	1.164
311.33	1.155
311.54	1.124
311.75	1.100
311.96	1.086
312.17	1.108
312.38	1.136
312.59	1.093
312.80	1.091
313.01	1.085
313.22	1.058
313.43	1.046
313.64	0.941
313.85	1.018
314.06	1.039
314.27	1.110
314.48	1.245
314.69	1.243
314.90	1.230
315.11	1.338
315.32	1.313
315.53	1.345
315.74	1.346
315.95	1.406
316.16	1.363
316.37	1.292
316.58	1.178
316.79	1.004
317.00	0.954
317.21	0.910
317.42	0.741
317.63	0.782
317.84	0.674
318.05	0.643
318.26	0.619
318.47	0.620
318.68	0.728
318.89	0.801
319.10	0.811
319.31	0.744
319.52	0.768
319.73	0.833
319.94	0.788
320.15	0.804
320.36	0.911
320.57	0.905
320.78	0.921
320.99	0.820
321.20	0.846
321.41	0.881
321.62	0.917
321.83	0.996
322.04	0.950
322.25	0.993
322.46	0.994
322.67	0.923
322.88	0.972
323.09	0.974
323.30	0.970
323.51	0.942
323.72	0.922
323.93	0.894
324.14	0.900
324.35	0.943
324.56	0.973
324.77	1.028
324.98	1.012
325.19	0.967
325.40	0.951
325.61	1.039
325.82	1.040
326.03	1.092
326.24	1.151
326.45	1.104
326.65	1.035
326.86	0.971
327.07	0.976
327.28	1.006
327.49	1.033
327.70	1.005
327.91	0.990
328.12	0.956
328.33	0.842
328.54	0.847
328.75	0.869
328.96	0.943
329.17	0.929
329.38	0.830
329.59	0.808
329.80	0.847
330.01	0.933
330.22	0.913
330.43	0.934
330.64	0.992
330.85	1.000
331.05	0.954
331.26	0.873
331.47	0.865
331.68	0.943
331.89	0.950
332.10	0.918
332.31	0.921
332.52	0.877
332.73	0.812
332.94	0.828
333.15	0.808
333.36	0.807
333.57	0.830
333.78	0.839
333.99	0.786
334.19	0.814
334.40	0.816
334.61	0.805
334.82	0.850
335.03	0.859
335.24	0.840
335.45	0.841
335.66	0.866
335.87	0.889
336.08	0.921
336.29	0.954
336.50	0.933
336.71	0.956
336.91	0.909
337.12	0.824
337.33	0.818
337.54	0.852
337.75	0.839
337.96	0.748
338.17	0.778
338.38	0.762
338.59	0.799
338.80	0.709
339.01	0.705
339.21	0.667
339.42	0.750
339.63	0.776
339.84	0.801
340.05	0.820
340.26	0.845
340.47	0.799
340.68	0.813
340.89	0.804
341.10	0.868
341.30	0.838
341.51	0.862
341.72	0.873
341.93	0.870
342.14	0.804
342.35	0.818
342.56	0.850
342.77	0.880
342.98	0.826
343.18	0.802
343.39	0.782
343.60	0.762
343.81	0.800
344.02	0.804
344.23	0.794
344.44	0.775
344.65	0.750
344.85	0.702
345.06	0.676
345.27	0.702
345.48	0.664
345.69	0.719
345.90	0.769
346.11	0.759
346.32	0.696
346.52	0.667
346.73	0.685
346.94	0.697
347.15	0.783
347.36	0.773
347.57	0.799
347.78	0.848
347.98	0.842
348.19	0.805
348.40	0.815
348.61	0.871
348.82	0.931
349.03	0.961
349.24	0.952
349.44	0.893
349.65	0.874
349.86	0.885
350.07	0.879
350.28	0.838
350.49	0.841
350.70	0.827
350.90	0.836
351.11	0.796
351.32	0.785
351.53	0.836
351.74	0.858
351.95	0.826
352.15	0.811
352.36	0.795
352.57	0.821
352.78	0.882
352.99	0.923
353.20	0.939
353.40	0.967
353.61	0.907
353.82	0.830
354.03	0.864
354.24	0.915
354.45	0.944
354.65	0.985
354.86	0.970
355.07	0.929
355.28	0.938
355.49	0.885
355.70	0.881
355.90	0.915
356.11	0.949
356.32	0.941
356.53	0.923
356.74	0.895
356.94	0.812
357.15	0.837
357.36	0.831
357.57	0.770
357.78	0.774
357.99	0.769
358.19	0.797
358.40	0.802
358.61	0.795
358.82	0.868
359.03	0.889
359.23	0.951
359.44	0.941
359.65	0.905
359.86	0.936
360.07	0.972
360.27	1.017
360.48	1.005
360.69	1.034
360.90	1.009
361.11	1.033
361.31	0.988
361.52	0.978
361.73	0.991
361.94	1.026
362.15	1.028
362.35	1.000
362.56	0.989
362.77	0.990
362.98	0.953
363.18	0.953
363.39	0.879
363.60	0.950
363.81	0.953
364.02	0.943
364.22	0.951
364.43	0.947
364.64	0.970
364.85	0.958
365.05	0.985
365.26	0.983
365.47	1.023
365.68	1.038
365.89	1.010
366.09	1.028
366.30	1.047
366.51	1.044
366.72	1.020
366.92	1.049
367.13	1.081
367.34	1.045
367.55	1.041
367.75	0.994
367.96	1.024
368.17	0.999
368.38	0.992
368.58	0.989
368.79	0.968
369.00	0.986
369.21	0.948
369.41	0.914
369.62	0.897
369.83	0.915
370.04	0.948
370.24	0.893
370.45	0.911
370.66	0.933
370.87	0.880
371.07	0.846
371.28	0.853
371.49	0.856
371.70	0.849
371.90	0.876
372.11	0.867
372.32	0.872
372.53	0.899
372.73	0.892
372.94	0.829
373.15	0.905
373.36	0.938
373.56	0.963
373.77	0.942
373.98	0.964
374.19	0.980
374.39	0.994
374.60	1.008
374.81	1.028
375.01	1.050
375.22	1.072
375.43	1.045
375.64	1.038
375.84	1.028
376.05	1.048
376.26	1.040
376.46	0.992
376.67	0.951
376.88	0.956
377.09	0.943
377.29	0.940
377.50	0.948
377.71	0.951
377.91	1.010
378.12	0.983
378.33	0.996
378.54	1.003
378.74	1.024
378.95	1.054
379.16	1.023
379.36	1.000
379.57	0.996
379.78	1.007
379.99	1.019
380.19	0.973
380.40	0.978
380.61	0.977
380.81	0.955
381.02	0.965
381.23	0.963
381.43	0.971
381.64	1.021
381.85	1.030
382.05	1.038
382.26	1.014
382.47	1.012
382.67	1.016
382.88	0.988
383.09	1.012
383.30	1.002
383.50	1.026
383.71	1.020
383.92	0.977
384.12	0.963
384.33	0.916
384.54	0.927
384.74	0.948
384.95	0.923
385.16	0.942
385.36	0.953
385.57	0.978
385.78	0.951
385.98	0.977
386.19	0.991
386.40	1.013
386.60	1.046
386.81	1.017
387.02	0.987
387.22	1.006
387.43	1.019
387.64	0.987
387.84	0.984
388.05	0.991
388.26	0.951
388.46	0.939
388.67	0.917
388.88	0.918
389.08	0.947
389.29	0.986
389.49	0.959
389.70	0.934
389.91	0.913
390.11	0.902
390.32	0.906
390.53	0.944
390.73	0.953
390.94	0.954
391.15	0.952
391.35	0.944
391.56	0.933
391.77	0.949
391.97	0.943
392.18	0.985
392.38	0.990
392.59	1.009
392.80	0.986
393.00	0.968
393.21	0.988
393.42	0.998
393.62	0.995
393.83	0.997
394.04	1.002
394.24	1.024
394.45	1.000
394.65	1.015
394.86	0.992
395.07	0.978
395.27	0.973
395.48	0.937
395.68	0.933
395.89	0.926
396.10	0.915
396.30	0.883
396.51	0.889
396.72	0.914
396.92	0.884
397.13	0.864
397.33	0.872
397.54	0.881
397.75	0.914
397.95	0.908
398.16	0.903
398.36	0.896
398.57	0.937
398.78	0.891
398.98	0.876
399.19	0.888
399.39	0.922
399.60	0.918
399.81	0.923
400.01	0.893
400.22	0.887
400.42	0.921
400.63	0.915
400.84	0.921
401.04	0.956
401.25	0.949
401.45	0.947
401.66	0.927
401.86	0.927
402.07	0.945
402.28	0.966
402.48	0.945
402.69	0.932
402.89	0.953
403.10	0.966
403.31	0.980
403.51	0.978
403.72	0.988
403.92	0.997
404.13	1.003
404.33	1.011
404.54	1.020
404.75	1.034
404.95	1.053
405.16	1.037
405.36	1.009
405.57	0.972
405.77	0.986
405.98	0.967
406.18	0.943
406.39	0.959
406.60	0.937
406.80	0.936
407.01	0.960
407.21	0.943
407.42	0.977
407.62	0.995
407.83	1.012
408.03	0.996
408.24	1.008
408.45	1.019
408.65	1.048
408.86	1.064
409.06	1.061
409.27	1.053
409.47	1.045
409.68	1.025
409.88	1.051
410.09	1.064
410.29	1.078
410.50	1.073
410.71	1.090
410.91	1.059
411.12	1.035
411.32	1.048
411.53	1.044
411.73	1.052
411.94	1.029
412.14	1.014
412.35	0.993
412.55	0.986
412.76	0.977
412.96	0.977
413.17	0.962
413.37	0.989
413.58	0.993
413.78	0.997
413.99	1.015
414.19	1.069
414.40	1.047
414.61	1.075
414.81	1.078
415.02	1.089
415.22	1.081
415.43	1.085
415.63	1.088
415.84	1.063
416.04	1.052
416.25	1.030
416.45	1.006
416.66	1.023
416.86	1.038
417.07	1.042
417.27	1.047
417.48	1.042
417.68	1.047
417.89	1.031
418.09	1.038
418.30	1.033
418.50	1.028
418.71	1.029
418.91	1.028
419.12	1.011
419.32	1.007
419.53	1.006
419.73	1.009
419.94	1.015
420.14	1.009
420.34	1.007
420.55	1.013
420.75	1.016
420.96	1.014
421.16	1.008
421.37	1.008
421.57	1.031
421.78	1.027
421.98	1.029
422.19	1.032
422.39	1.060
422.60	1.060
422.80	1.063
423.01	1.067
423.21	1.071
423.42	1.073
423.62	1.052
423.83	1.020
424.03	1.029
424.23	1.030
424.44	1.016
424.64	1.003
424.85	1.003
425.05	1.009
425.26	1.001
425.46	1.001
425.67	0.998
425.87	1.023
426.08	1.037
426.28	1.023
426.48	1.033
426.69	1.045
426.89	1.051
427.10	1.072
427.30	1.082
427.51	1.114
427.71	1.107
427.92	1.081
428.12	1.076
428.32	1.076
428.53	1.074
428.73	1.073
428.94	1.070
429.14	1.056
429.35	1.024
429.55	1.020
429.76	1.006
429.96	1.017
430.16	1.049
430.37	1.057
430.57	1.063
430.78	1.088
430.98	1.069
431.19	1.066
431.39	1.052
431.59	1.046
431.80	1.044
432.00	1.027
432.21	1.024
432.41	1.005
432.61	1.000
432.82	1.000
433.02	0.994
433.23	1.000
433.43	1.005
433.64	1.023
433.84	1.040
434.04	1.043
434.25	1.053
434.45	1.055
434.66	1.063
434.86	1.061
435.06	1.061
435.27	1.062
435.47	1.061
435.68	1.054
435.88	1.049
436.08	1.037
436.29	1.021
436.49	1.033
436.70	1.029
436.90	1.034
437.10	1.034
437.31	1.027
437.51	1.013
437.71	1.017
437.92	1.020
438.12	1.024
438.33	1.030
438.53	1.038
438.73	1.024
438.94	1.022
439.14	1.025
439.35	1.025
439.55	1.032
439.75	1.033
439.96	1.036
440.16	1.042
440.36	1.041
440.57	1.042
440.77	1.047
440.97	1.058
441.18	1.070
441.38	1.069
441.59	1.077
441.79	1.087
441.99	1.106
442.20	1.098
442.40	1.091
442.60	1.088
442.81	1.072
443.01	1.056
443.21	1.043
443.42	1.042
443.62	1.036
443.83	1.036
444.03	1.032
444.23	1.042
444.44	1.049
444.64	1.055
444.84	1.054
445.05	1.062
445.25	1.065
445.45	1.074
445.66	1.071
445.86	1.078
446.06	1.080
446.27	1.083
446.47	1.063
446.67	1.066
446.88	1.061
447.08	1.070
447.28	1.068
447.49	1.068
447.69	1.064
447.89	1.072
448.10	1.071
448.30	1.061
448.50	1.042
448.71	1.047
448.91	1.040
449.11	1.046
449.32	1.046
449.52	1.056
449.72	1.058
449.93	1.055
450.13	1.034
450.33	1.037
450.53	1.045
450.74	1.061
450.94	1.052
451.14	1.049
451.35	1.056
451.55	1.046
451.75	1.052
451.96	1.050
452.16	1.055
452.36	1.068
452.57	1.067
452.77	1.080
452.97	1.070
453.17	1.081
453.38	1.091
453.58	1.077
453.78	1.067
453.99	1.060
454.19	1.067
454.39	1.084
454.59	1.082
454.80	1.061
455.00	1.057
455.20	1.064
455.41	1.051
455.61	1.039
455.81	1.054
456.01	1.072
456.22	1.075
456.42	1.072
456.62	1.053
456.83	1.047
457.03	1.064
457.23	1.046
457.43	1.044
457.64	1.076
457.84	1.082
458.04	1.075
458.25	1.078
458.45	1.068
458.65	1.069
458.85	1.074
459.06	1.067
459.26	1.060
459.46	1.066
459.66	1.070
459.87	1.056
460.07	1.061
460.27	1.062
460.47	1.053
460.68	1.062
460.88	1.053
461.08	1.040
461.28	1.051
461.49	1.055
461.69	1.061
461.89	1.048
462.09	1.048
462.30	1.042
462.50	1.046
462.70	1.051
462.90	1.042
463.11	1.045
463.31	1.054
463.51	1.045
463.71	1.052
463.92	1.066
464.12	1.073
464.32	1.087
464.52	1.085
464.72	1.089
464.93	1.082
465.13	1.075
465.33	1.079
465.53	1.079
465.74	1.083
465.94	1.083
466.14	1.059
466.34	1.061
466.54	1.053
466.75	1.046
466.95	1.040
467.15	1.057
467.35	1.067
467.56	1.075
467.76	1.082
467.96	1.088
468.16	1.087
468.36	1.089
468.57	1.104
468.77	1.116
468.97	1.117
469.17	1.118
469.37	1.115
469.58	1.116
469.78	1.116
469.98	1.113
470.18	1.105
470.38	1.096
470.59	1.098
470.79	1.088
470.99	1.071
471.19	1.074
471.39	1.068
471.60	1.043
471.80	1.044
472.00	1.028
472.20	1.030
472.40	1.028
472.61	1.035
472.81	1.041
473.01	1.029
473.21	1.027
473.41	1.030
473.61	1.039
473.82	1.071
474.02	1.070
474.22	1.088
474.42	1.090
474.62	1.097
474.82	1.099
475.03	1.112
475.23	1.124
475.43	1.147
475.63	1.151
475.83	1.145
476.03	1.119
476.24	1.120
476.44	1.124
476.64	1.116
476.84	1.116
477.04	1.115
477.24	1.102
477.45	1.096
477.65	1.097
477.85	1.090
478.05	1.088
478.25	1.097
478.45	1.092
478.65	1.079
478.86	1.076
479.06	1.079
479.26	1.088
479.46	1.095
479.66	1.099
479.86	1.089
480.06	1.104
480.27	1.097
480.47	1.093
480.67	1.099
480.87	1.092
481.07	1.093
481.27	1.093
481.47	1.095
481.68	1.087
481.88	1.097
482.08	1.098
482.28	1.108
482.48	1.120
482.68	1.120
482.88	1.113
483.08	1.124
483.29	1.132
483.49	1.124
483.69	1.114
483.89	1.114
484.09	1.111
484.29	1.110
484.49	1.107
484.69	1.103
484.89	1.106
485.10	1.110
485.30	1.105
485.50	1.101
485.70	1.101
485.90	1.109
486.10	1.116
486.30	1.123
486.50	1.125
486.70	1.125
486.90	1.123
487.11	1.120
487.31	1.119
487.51	1.111
487.71	1.104
487.91	1.117
488.11	1.114
488.31	1.114
488.51	1.115
