OOIBase32 Version 2.0.6.5 Data File
++++++++++++++++++++++++++++++++++++
Date: 03-24-2011, 10:55:19
User: Valued Ocean Optics Customer
Spectrometer Serial Number: USB4C01507
Spectrometer Channel: Master
Integration Time (msec): 46
Spectra Averaged: 30
Boxcar Smoothing: 5
Correct for Electrical Dark: Enabled
Time Normalized: Disabled
Dual-beam Reference: Disabled
Reference Channel: Master
Temperature: Not acquired
Spectrometer Type: S4000
ADC Type: USB4000
Number of Pixels in File: 3648
Graph Title: 
>>>>>Begin Spectral Data<<<<<
179.17	1106.459
179.39	3046.635
179.60	-109.926
179.82	-104.219
180.03	361.571
180.24	-86.568
180.46	19.817
180.67	-239.990
180.89	-197.988
181.10	-274.369
181.31	82.985
181.53	-67.226
181.74	-17.965
181.96	-9.920
182.17	3.416
182.39	-53.265
182.60	107.929
182.81	11.750
183.03	40.494
183.24	-618.548
183.46	35.436
183.67	25.863
183.88	13.419
184.10	11.404
184.31	9.459
184.53	17.718
184.74	15.084
184.96	23.113
185.17	26.528
185.38	25.227
185.60	29.605
185.81	26.423
186.03	24.166
186.24	27.859
186.45	28.037
186.67	28.259
186.88	26.570
187.10	22.088
187.31	19.194
187.52	12.462
187.74	12.815
187.95	7.072
188.17	3.461
188.38	6.769
188.59	8.226
188.81	-2.646
189.02	0.979
189.24	2.387
189.45	11.114
189.66	9.768
189.88	5.032
190.09	6.143
190.30	4.188
190.52	7.549
190.73	3.256
190.95	-3.119
191.16	5.205
191.37	3.883
191.59	4.389
191.80	-3.038
192.02	-9.196
192.23	-1.551
192.44	-11.518
192.66	-8.015
192.87	-20.793
193.08	-22.848
193.30	-14.617
193.51	-8.469
193.73	-8.687
193.94	-1.741
194.15	-1.256
194.37	8.508
194.58	5.863
194.79	2.833
195.01	0.057
195.22	8.650
195.44	11.114
195.65	9.338
195.86	4.363
196.08	0.393
196.29	0.733
196.50	-1.628
196.72	-1.838
196.93	2.028
197.14	5.866
197.36	8.220
197.57	0.042
197.79	-1.891
198.00	-5.913
198.21	-5.446
198.43	1.619
198.64	-1.292
198.85	-2.007
199.07	-0.645
199.28	-0.619
199.49	-6.021
199.71	-5.402
199.92	0.763
200.13	-0.310
200.35	5.947
200.56	3.127
200.78	-2.642
200.99	-6.085
201.20	-2.034
201.42	-8.458
201.63	-10.729
201.84	-2.720
202.06	-3.642
202.27	-2.778
202.48	1.575
202.70	-7.027
202.91	-5.307
203.12	-4.370
203.34	-4.183
203.55	-6.782
203.76	-1.416
203.98	1.041
204.19	-0.978
204.40	1.464
204.62	1.991
204.83	-1.742
205.04	-2.437
205.26	-3.215
205.47	-1.683
205.68	-0.458
205.90	1.282
206.11	-0.221
206.32	-2.726
206.54	1.174
206.75	2.147
206.96	-2.185
207.18	1.774
207.39	8.597
207.60	17.397
207.82	16.202
208.03	16.673
208.24	18.632
208.45	18.386
208.67	12.188
208.88	10.332
209.09	7.954
209.31	8.660
209.52	7.221
209.73	4.811
209.95	0.248
210.16	2.838
210.37	2.384
210.59	2.903
210.80	2.276
211.01	8.119
211.23	9.063
211.44	8.690
211.65	8.232
211.86	9.973
212.08	5.455
212.29	5.337
212.50	3.507
212.72	0.018
212.93	-3.325
213.14	1.576
213.36	0.634
213.57	0.221
213.78	-0.952
213.99	2.889
214.21	4.485
214.42	12.823
214.63	10.803
214.85	10.748
215.06	13.205
215.27	17.343
215.49	13.137
215.70	14.129
215.91	12.479
216.12	12.722
216.34	13.532
216.55	11.962
216.76	8.708
216.98	8.069
217.19	7.004
217.40	9.568
217.61	8.243
217.83	8.909
218.04	7.430
218.25	7.519
218.47	7.510
218.68	5.731
218.89	6.938
219.10	6.168
219.32	5.442
219.53	7.348
219.74	8.417
219.95	7.522
220.17	6.833
220.38	8.111
220.59	7.829
220.81	6.678
221.02	7.670
221.23	7.206
221.44	6.634
221.66	8.191
221.87	7.321
222.08	5.862
222.29	5.688
222.51	5.879
222.72	5.401
222.93	5.639
223.14	7.259
223.36	5.994
223.57	5.208
223.78	5.325
223.99	4.399
224.21	4.793
224.42	5.002
224.63	3.681
224.84	2.832
225.06	2.720
225.27	3.023
225.48	2.858
225.69	3.012
225.91	3.140
226.12	3.146
226.33	4.442
226.54	4.246
226.76	4.294
226.97	4.765
227.18	4.830
227.39	4.746
227.61	4.861
227.82	4.609
228.03	4.777
228.24	4.773
228.46	4.937
228.67	4.818
228.88	4.741
229.09	4.613
229.31	4.547
229.52	4.721
229.73	4.876
229.94	4.682
230.16	4.898
230.37	4.607
230.58	4.423
230.79	4.390
231.00	4.508
231.22	4.612
231.43	4.571
231.64	4.669
231.85	4.321
232.07	4.079
232.28	4.248
232.49	4.087
232.70	4.141
232.91	4.712
233.13	4.716
233.34	4.525
233.55	4.782
233.76	4.875
233.98	5.050
234.19	5.192
234.40	5.306
234.61	5.326
234.82	5.530
235.04	5.208
235.25	5.121
235.46	4.976
235.67	4.650
235.88	4.565
236.10	4.605
236.31	4.340
236.52	4.337
236.73	4.220
236.94	4.038
237.16	3.750
237.37	4.233
237.58	3.852
237.79	3.872
238.01	3.844
238.22	3.786
238.43	3.765
238.64	4.067
238.85	3.945
239.06	3.831
239.28	3.464
239.49	3.506
239.70	3.468
239.91	3.501
240.12	3.631
240.34	3.736
240.55	3.826
240.76	3.858
240.97	3.663
241.18	3.741
241.40	3.646
241.61	3.839
241.82	3.937
242.03	4.060
242.24	3.994
242.45	3.888
242.67	3.922
242.88	3.885
243.09	3.735
243.30	3.682
243.51	3.777
243.73	3.904
243.94	3.809
244.15	3.688
244.36	3.519
244.57	3.879
244.78	3.880
245.00	3.869
245.21	3.794
245.42	3.913
245.63	4.001
245.84	3.964
246.05	3.980
246.27	4.071
246.48	4.067
246.69	4.092
246.90	4.080
247.11	4.025
247.32	4.029
247.54	4.048
247.75	4.005
247.96	3.987
248.17	3.979
248.38	4.045
248.59	3.945
248.81	3.953
249.02	3.857
249.23	3.607
249.44	3.670
249.65	3.550
249.86	3.305
250.07	3.495
250.29	3.399
250.50	3.266
250.71	3.083
250.92	3.125
251.13	3.190
251.34	3.323
251.55	3.376
251.77	3.462
251.98	3.513
252.19	3.641
252.40	3.529
252.61	3.589
252.82	3.525
253.03	3.517
253.25	3.471
253.46	3.300
253.67	3.146
253.88	3.141
254.09	3.001
254.30	2.991
254.51	3.086
254.73	3.103
254.94	3.172
255.15	3.269
255.36	3.199
255.57	3.207
255.78	3.172
255.99	3.181
256.20	3.287
256.42	3.216
256.63	3.095
256.84	2.902
257.05	2.857
257.26	2.639
257.47	2.523
257.68	2.608
257.89	2.630
258.10	2.837
258.32	2.924
258.53	2.938
258.74	2.970
258.95	3.036
259.16	3.076
259.37	3.119
259.58	3.128
259.79	3.255
260.00	3.216
260.22	3.195
260.43	3.182
260.64	3.110
260.85	3.153
261.06	3.155
261.27	3.043
261.48	2.982
261.69	2.916
261.90	2.953
262.12	2.797
262.33	2.930
262.54	3.023
262.75	3.027
262.96	2.911
263.17	2.906
263.38	2.905
263.59	2.991
263.80	3.142
264.01	3.193
264.22	3.128
264.44	2.998
264.65	2.842
264.86	2.827
265.07	2.738
265.28	2.832
265.49	2.719
265.70	2.669
265.91	2.687
266.12	2.565
266.33	2.524
266.54	2.570
266.75	2.678
266.97	2.774
267.18	2.781
267.39	2.781
267.60	2.746
267.81	2.698
268.02	2.676
268.23	2.763
268.44	2.783
268.65	2.748
268.86	2.831
269.07	2.845
269.28	2.741
269.49	2.799
269.70	2.759
269.92	2.783
270.13	2.802
270.34	2.889
270.55	2.783
270.76	2.782
270.97	2.794
271.18	2.779
271.39	2.690
271.60	2.748
271.81	2.724
272.02	2.785
272.23	2.796
272.44	2.857
272.65	2.843
272.86	2.865
273.07	2.773
273.28	2.862
273.49	2.839
273.71	2.863
273.92	2.847
274.13	2.686
274.34	2.525
274.55	2.485
274.76	2.387
274.97	2.402
275.18	2.344
275.39	2.487
275.60	2.384
275.81	2.477
276.02	2.393
276.23	2.418
276.44	2.526
276.65	2.675
276.86	2.768
277.07	2.779
277.28	2.780
277.49	2.866
277.70	2.802
277.91	2.924
278.12	2.777
278.33	2.763
278.54	2.844
278.75	2.713
278.96	2.523
279.17	2.565
279.39	2.563
279.60	2.500
279.81	2.455
280.02	2.472
280.23	2.421
280.44	2.422
280.65	2.443
280.86	2.291
281.07	2.427
281.28	2.626
281.49	2.510
281.70	2.548
281.91	2.584
282.12	2.620
282.33	2.633
282.54	2.633
282.75	2.694
282.96	2.791
283.17	2.874
283.38	2.830
283.59	2.754
283.80	2.760
284.01	2.662
284.22	2.674
284.43	2.635
284.64	2.639
284.85	2.601
285.06	2.586
285.27	2.552
285.48	2.555
285.69	2.571
285.90	2.620
286.11	2.629
286.32	2.689
286.53	2.626
286.74	2.666
286.95	2.622
287.16	2.645
287.37	2.593
287.58	2.581
287.79	2.532
288.00	2.547
288.21	2.501
288.42	2.498
288.63	2.547
288.84	2.571
289.05	2.599
289.26	2.661
289.47	2.603
289.68	2.600
289.89	2.571
290.10	2.533
290.31	2.440
290.51	2.407
290.72	2.434
290.93	2.460
291.14	2.451
291.35	2.360
291.56	2.300
291.77	2.298
291.98	2.313
292.19	2.387
292.40	2.430
292.61	2.458
292.82	2.504
293.03	2.565
293.24	2.495
293.45	2.584
293.66	2.633
293.87	2.694
294.08	2.657
294.29	2.710
294.50	2.650
294.71	2.637
294.92	2.694
295.13	2.634
295.34	2.491
295.55	2.538
295.76	2.431
295.96	2.394
296.17	2.386
296.38	2.508
296.59	2.485
296.80	2.466
297.01	2.485
297.22	2.502
297.43	2.551
297.64	2.581
297.85	2.524
298.06	2.537
298.27	2.568
298.48	2.555
298.69	2.490
298.90	2.477
299.11	2.526
299.32	2.461
299.53	2.423
299.73	2.399
299.94	2.419
300.15	2.385
300.36	2.409
300.57	2.384
300.78	2.384
300.99	2.405
301.20	2.333
301.41	2.299
301.62	2.372
301.83	2.369
302.04	2.378
302.25	2.319
302.45	2.292
302.66	2.301
302.87	2.267
303.08	2.251
303.29	2.196
303.50	2.299
303.71	2.303
303.92	2.261
304.13	2.209
304.34	2.202
304.55	2.296
304.76	2.380
304.96	2.364
305.17	2.391
305.38	2.374
305.59	2.386
305.80	2.361
306.01	2.374
306.22	2.341
306.43	2.386
306.64	2.350
306.85	2.311
307.06	2.299
307.26	2.286
307.47	2.215
307.68	2.270
307.89	2.224
308.10	2.178
308.31	2.203
308.52	2.301
308.73	2.304
308.94	2.298
309.14	2.311
309.35	2.317
309.56	2.326
309.77	2.409
309.98	2.422
310.19	2.429
310.40	2.434
310.61	2.386
310.82	2.324
311.02	2.350
311.23	2.341
311.44	2.287
311.65	2.234
311.86	2.208
312.07	2.160
312.28	2.092
312.49	2.082
312.69	2.060
312.90	2.076
313.11	2.125
313.32	2.098
313.53	2.141
313.74	2.118
313.95	2.083
314.16	2.075
314.36	2.105
314.57	2.183
314.78	2.180
314.99	2.255
315.20	2.270
315.41	2.218
315.62	2.136
315.82	2.090
316.03	2.127
316.24	2.232
316.45	2.296
316.66	2.303
316.87	2.309
317.08	2.310
317.28	2.290
317.49	2.248
317.70	2.291
317.91	2.327
318.12	2.332
318.33	2.370
318.54	2.354
318.74	2.300
318.95	2.315
319.16	2.301
319.37	2.303
319.58	2.248
319.79	2.199
319.99	2.154
320.20	2.118
320.41	2.150
320.62	2.102
320.83	2.024
321.04	1.996
321.24	1.934
321.45	1.945
321.66	1.949
321.87	2.001
322.08	2.058
322.29	2.022
322.49	2.085
322.70	2.046
322.91	2.097
323.12	2.172
323.33	2.216
323.54	2.211
323.74	2.156
323.95	2.182
324.16	2.202
324.37	2.190
324.58	2.260
324.79	2.197
324.99	2.185
325.20	2.177
325.41	2.185
325.62	2.200
325.83	2.191
326.03	2.167
326.24	2.132
326.45	2.104
326.66	2.045
326.87	2.045
327.07	2.090
327.28	2.090
327.49	2.093
327.70	2.081
327.91	2.082
328.11	2.070
328.32	2.089
328.53	2.156
328.74	2.167
328.95	2.210
329.15	2.207
329.36	2.240
329.57	2.261
329.78	2.268
329.99	2.257
330.19	2.215
330.40	2.242
330.61	2.281
330.82	2.168
331.03	2.101
331.23	2.134
331.44	2.088
331.65	2.063
331.86	2.080
332.07	2.012
332.27	2.019
332.48	2.035
332.69	2.065
332.90	2.028
333.10	2.082
333.31	2.111
333.52	2.044
333.73	2.047
333.94	2.009
334.14	1.986
334.35	1.999
334.56	1.979
334.77	1.943
334.97	1.889
335.18	1.863
335.39	1.859
335.60	1.872
335.80	1.864
336.01	1.871
336.22	1.864
336.43	1.901
336.64	1.937
336.84	1.959
337.05	1.961
337.26	1.953
337.47	2.000
337.67	2.029
337.88	2.009
338.09	2.055
338.30	2.059
338.50	2.090
338.71	2.033
338.92	2.020
339.13	2.010
339.33	2.014
339.54	2.027
339.75	2.025
339.96	1.991
340.16	1.985
340.37	2.006
340.58	1.996
340.79	1.984
340.99	2.016
341.20	1.950
341.41	1.920
341.62	1.963
341.82	1.976
342.03	1.866
342.24	1.875
342.44	1.883
342.65	1.869
342.86	1.857
343.07	1.859
343.27	1.870
343.48	1.880
343.69	1.878
343.90	1.905
344.10	1.856
344.31	1.917
344.52	1.951
344.72	1.941
344.93	1.939
345.14	1.971
345.35	1.981
345.55	1.983
345.76	2.019
345.97	2.053
346.18	1.998
346.38	2.055
346.59	2.045
346.80	2.039
347.00	2.044
347.21	2.054
347.42	2.079
347.62	2.073
347.83	2.009
348.04	1.989
348.25	1.923
348.45	1.931
348.66	1.911
348.87	1.962
349.07	1.929
349.28	1.945
349.49	1.901
349.70	1.869
349.90	1.838
350.11	1.886
350.32	1.888
350.52	1.920
350.73	1.908
350.94	1.908
351.14	1.877
351.35	1.883
351.56	1.848
351.76	1.904
351.97	1.906
352.18	1.949
352.39	1.925
352.59	1.973
352.80	1.966
353.01	1.998
353.21	1.990
353.42	2.005
353.63	1.958
353.83	1.968
354.04	1.933
354.25	1.937
354.45	1.911
354.66	1.922
354.87	1.875
355.07	1.882
355.28	1.848
355.49	1.851
355.69	1.827
355.90	1.876
356.11	1.903
356.31	1.908
356.52	1.893
356.73	1.906
356.93	1.902
357.14	1.938
357.35	1.947
357.55	1.987
357.76	1.974
357.97	1.985
358.17	2.011
358.38	1.988
358.59	1.992
358.79	2.009
359.00	1.953
359.21	1.931
359.41	1.891
359.62	1.883
359.83	1.826
360.03	1.834
360.24	1.847
360.44	1.820
360.65	1.810
360.86	1.826
361.06	1.829
361.27	1.877
361.48	1.887
361.68	1.929
361.89	1.931
362.10	1.944
362.30	1.956
362.51	1.940
362.72	1.944
362.92	1.952
363.13	1.904
363.33	1.856
363.54	1.866
363.75	1.869
363.95	1.839
364.16	1.836
364.37	1.868
364.57	1.863
364.78	1.880
364.98	1.850
365.19	1.841
365.40	1.867
365.60	1.887
365.81	1.907
366.02	1.910
366.22	1.898
366.43	1.919
366.63	1.898
366.84	1.899
367.05	1.898
367.25	1.894
367.46	1.868
367.66	1.888
367.87	1.923
368.08	1.880
368.28	1.897
368.49	1.896
368.69	1.839
368.90	1.856
369.11	1.862
369.31	1.847
369.52	1.886
369.72	1.914
369.93	1.883
370.14	1.871
370.34	1.878
370.55	1.879
370.75	1.885
370.96	1.899
371.17	1.910
371.37	1.887
371.58	1.909
371.78	1.882
371.99	1.901
372.20	1.918
372.40	1.897
372.61	1.896
372.81	1.881
373.02	1.885
373.23	1.893
373.43	1.869
373.64	1.899
373.84	1.891
374.05	1.929
374.25	1.907
374.46	1.885
374.67	1.880
374.87	1.907
375.08	1.900
375.28	1.892
375.49	1.900
375.69	1.900
375.90	1.863
376.11	1.855
376.31	1.830
376.52	1.834
376.72	1.838
376.93	1.834
377.13	1.810
377.34	1.821
377.55	1.844
377.75	1.873
377.96	1.832
378.16	1.865
378.37	1.889
378.57	1.912
378.78	1.922
378.98	1.926
379.19	1.956
379.40	1.946
379.60	1.924
379.81	1.918
380.01	1.879
380.22	1.920
380.42	1.891
380.63	1.877
380.83	1.847
381.04	1.841
381.24	1.845
381.45	1.824
381.66	1.836
381.86	1.839
382.07	1.829
382.27	1.849
382.48	1.828
382.68	1.823
382.89	1.804
383.09	1.820
383.30	1.790
383.50	1.796
383.71	1.782
383.91	1.775
384.12	1.797
384.32	1.785
384.53	1.779
384.73	1.798
384.94	1.794
385.15	1.811
385.35	1.803
385.56	1.829
385.76	1.809
385.97	1.822
386.17	1.825
386.38	1.838
386.58	1.847
386.79	1.876
386.99	1.863
387.20	1.879
387.40	1.854
387.61	1.874
387.81	1.861
388.02	1.872
388.22	1.852
388.43	1.863
388.63	1.831
388.84	1.856
389.04	1.832
389.25	1.849
389.45	1.839
389.66	1.864
389.86	1.843
390.07	1.873
390.27	1.868
390.48	1.884
390.68	1.861
390.89	1.889
391.09	1.893
391.30	1.891
391.50	1.881
391.71	1.885
391.91	1.881
392.12	1.922
392.32	1.905
392.53	1.923
392.73	1.939
392.94	1.962
393.14	1.937
393.35	1.931
393.55	1.926
393.75	1.938
393.96	1.938
394.16	1.925
394.37	1.895
394.57	1.906
394.78	1.900
394.98	1.887
395.19	1.867
395.39	1.873
395.60	1.842
395.80	1.830
396.01	1.817
396.21	1.831
396.42	1.824
396.62	1.820
396.83	1.786
397.03	1.785
397.23	1.776
397.44	1.803
397.64	1.815
397.85	1.840
398.05	1.852
398.26	1.859
398.46	1.836
398.67	1.862
398.87	1.851
399.08	1.877
399.28	1.867
399.48	1.873
399.69	1.847
399.89	1.849
400.10	1.844
400.30	1.851
400.51	1.847
400.71	1.891
400.92	1.887
401.12	1.890
401.32	1.860
401.53	1.866
401.73	1.863
401.94	1.878
402.14	1.856
402.35	1.873
402.55	1.868
402.75	1.878
402.96	1.867
403.16	1.877
403.37	1.879
403.57	1.913
403.78	1.912
403.98	1.923
404.18	1.904
404.39	1.903
404.59	1.879
404.80	1.886
405.00	1.859
405.21	1.879
405.41	1.850
405.61	1.854
405.82	1.845
406.02	1.844
406.23	1.841
406.43	1.861
406.63	1.878
406.84	1.899
407.04	1.896
407.25	1.911
407.45	1.885
407.65	1.896
407.86	1.888
408.06	1.867
408.27	1.868
408.47	1.882
408.67	1.865
408.88	1.866
409.08	1.848
409.29	1.838
409.49	1.845
409.69	1.837
409.90	1.844
410.10	1.860
410.31	1.874
410.51	1.887
410.71	1.857
410.92	1.843
411.12	1.835
411.33	1.846
411.53	1.842
411.73	1.841
411.94	1.857
412.14	1.846
412.34	1.838
412.55	1.851
412.75	1.840
412.96	1.864
413.16	1.905
413.36	1.899
413.57	1.895
413.77	1.915
413.97	1.919
414.18	1.921
414.38	1.926
414.59	1.944
414.79	1.921
414.99	1.921
415.20	1.914
415.40	1.919
415.60	1.926
415.81	1.909
416.01	1.910
416.21	1.892
416.42	1.891
416.62	1.913
416.83	1.892
417.03	1.914
417.23	1.906
417.44	1.910
417.64	1.883
417.84	1.889
418.05	1.907
418.25	1.909
418.45	1.918
418.66	1.915
418.86	1.886
419.06	1.906
419.27	1.899
419.47	1.907
419.67	1.905
419.88	1.925
420.08	1.906
420.28	1.899
420.49	1.898
420.69	1.901
420.89	1.899
421.10	1.917
421.30	1.900
421.50	1.898
421.71	1.897
421.91	1.895
422.11	1.889
422.32	1.905
422.52	1.899
422.72	1.913
422.93	1.925
423.13	1.932
423.33	1.923
423.54	1.921
423.74	1.913
423.94	1.913
424.15	1.905
424.35	1.906
424.55	1.901
424.76	1.909
424.96	1.895
425.16	1.887
425.36	1.879
425.57	1.875
425.77	1.885
425.97	1.896
426.18	1.895
426.38	1.896
426.58	1.902
426.79	1.909
426.99	1.911
427.19	1.908
427.39	1.909
427.60	1.903
427.80	1.919
428.00	1.940
428.21	1.956
428.41	1.957
428.61	1.986
428.82	1.973
429.02	1.971
429.22	1.978
429.42	1.989
429.63	1.983
429.83	1.994
430.03	1.980
430.24	1.962
430.44	1.949
430.64	1.963
430.84	1.953
431.05	1.952
431.25	1.961
431.45	1.937
431.65	1.926
431.86	1.931
432.06	1.947
432.26	1.953
432.47	1.948
432.67	1.948
432.87	1.938
433.07	1.939
433.28	1.954
433.48	1.967
433.68	1.992
433.88	1.997
434.09	1.996
434.29	1.981
434.49	1.976
434.69	1.964
434.90	1.979
435.10	1.979
435.30	1.990
435.51	1.990
435.71	1.960
435.91	1.947
436.11	1.941
436.32	1.925
436.52	1.940
436.72	1.957
436.92	1.971
437.13	1.947
437.33	1.952
437.53	1.932
437.73	1.912
437.93	1.912
438.14	1.914
438.34	1.915
438.54	1.940
438.74	1.926
438.95	1.919
439.15	1.923
439.35	1.931
439.55	1.925
439.76	1.947
439.96	1.959
440.16	1.972
440.36	1.980
440.56	1.986
440.77	1.965
440.97	1.965
441.17	1.965
441.37	1.966
441.58	1.968
441.78	1.998
441.98	1.992
442.18	1.998
442.38	1.986
442.59	1.982
442.79	1.978
442.99	2.004
443.19	2.015
443.40	2.021
443.60	2.018
443.80	2.014
444.00	1.988
444.20	1.984
444.41	1.966
444.61	1.989
444.81	1.994
445.01	1.994
445.21	1.977
445.42	1.980
445.62	1.979
445.82	1.979
446.02	1.978
446.22	1.984
446.43	1.986
446.63	1.989
446.83	1.981
447.03	1.980
447.23	1.982
447.44	1.996
447.64	1.999
447.84	1.998
448.04	2.000
448.24	2.005
448.44	1.994
448.65	1.998
448.85	2.008
449.05	2.012
449.25	2.005
449.45	2.017
449.65	2.021
449.86	2.022
450.06	2.032
450.26	2.045
450.46	2.048
450.66	2.061
450.87	2.066
451.07	2.074
451.27	2.070
451.47	2.079
451.67	2.088
451.87	2.090
452.08	2.088
452.28	2.081
452.48	2.072
452.68	2.071
452.88	2.067
453.08	2.057
453.28	2.064
453.49	2.069
453.69	2.073
453.89	2.061
454.09	2.056
454.29	2.046
454.49	2.060
454.70	2.074
454.90	2.067
455.10	2.068
455.30	2.054
455.50	2.056
455.70	2.053
455.90	2.037
456.11	2.032
456.31	2.027
456.51	2.024
456.71	2.002
456.91	2.001
457.11	2.032
457.31	2.032
457.51	2.046
457.72	2.030
457.92	2.020
458.12	2.028
458.32	2.041
458.52	2.042
458.72	2.062
458.92	2.062
459.12	2.065
459.33	2.047
459.53	2.055
459.73	2.073
459.93	2.084
460.13	2.098
460.33	2.103
460.53	2.092
460.73	2.085
460.93	2.077
461.14	2.089
461.34	2.088
461.54	2.100
461.74	2.104
461.94	2.086
462.14	2.080
462.34	2.067
462.54	2.063
462.74	2.059
462.95	2.069
463.15	2.066
463.35	2.058
463.55	2.052
463.75	2.053
463.95	2.044
464.15	2.058
464.35	2.063
464.55	2.063
464.75	2.070
464.95	2.092
465.16	2.091
465.36	2.089
465.56	2.084
465.76	2.109
465.96	2.107
466.16	2.115
466.36	2.106
466.56	2.084
466.76	2.080
466.96	2.083
467.16	2.080
467.36	2.080
467.57	2.084
467.77	2.096
467.97	2.086
468.17	2.077
468.37	2.072
468.57	2.080
468.77	2.090
468.97	2.097
469.17	2.108
469.37	2.107
469.57	2.121
469.77	2.126
469.97	2.137
470.17	2.142
470.37	2.153
470.57	2.160
470.78	2.151
470.98	2.166
471.18	2.174
471.38	2.166
471.58	2.176
471.78	2.174
471.98	2.184
472.18	2.185
472.38	2.183
472.58	2.190
472.78	2.196
472.98	2.209
473.18	2.211
473.38	2.209
473.58	2.218
473.78	2.213
473.98	2.219
474.18	2.232
474.38	2.226
474.58	2.229
474.78	2.237
474.98	2.237
475.18	2.242
475.38	2.249
475.58	2.251
475.79	2.239
475.99	2.233
476.19	2.230
476.39	2.211
476.59	2.215
476.79	2.228
476.99	2.219
477.19	2.221
477.39	2.197
477.59	2.190
477.79	2.200
477.99	2.199
478.19	2.203
478.39	2.208
478.59	2.212
478.79	2.215
478.99	2.208
479.19	2.214
479.39	2.218
479.59	2.253
479.79	2.259
479.99	2.260
480.19	2.258
480.39	2.259
480.59	2.264
480.79	2.272
480.99	2.268
481.19	2.272
481.39	2.267
481.59	2.267
481.79	2.263
481.99	2.266
482.19	2.267
482.39	2.282
482.59	2.290
482.79	2.287
482.99	2.293
483.19	2.325
483.39	2.364
483.59	2.396
483.79	2.402
483.99	2.394
484.19	2.383
484.39	2.381
484.58	2.379
484.78	2.382
484.98	2.387
485.18	2.391
485.38	2.379
485.58	2.346
485.78	2.315
485.98	2.303
486.18	2.309
486.38	2.331
486.58	2.343
486.78	2.345
486.98	2.352
487.18	2.359
