OOIBase32 Version 2.0.6.5 Data File
++++++++++++++++++++++++++++++++++++
Date: 03-24-2011, 10:55:30
User: Valued Ocean Optics Customer
Spectrometer Serial Number: USB4C01507
Spectrometer Channel: Master
Integration Time (msec): 46
Spectra Averaged: 30
Boxcar Smoothing: 5
Correct for Electrical Dark: Enabled
Time Normalized: Disabled
Dual-beam Reference: Disabled
Reference Channel: Master
Temperature: Not acquired
Spectrometer Type: S4000
ADC Type: USB4000
Number of Pixels in File: 3648
Graph Title: 
>>>>>Begin Spectral Data<<<<<
179.17	1138.856
179.39	3306.385
179.60	132.872
179.82	-137.729
180.03	205.222
180.24	89.854
180.46	60.533
180.67	-49.836
180.89	93.881
181.10	-215.289
181.31	122.115
181.53	-120.111
181.74	57.428
181.96	258.355
182.17	117.013
182.39	25.480
182.60	136.112
182.81	110.842
183.03	108.786
183.24	-341.035
183.46	61.749
183.67	45.483
183.88	31.982
184.10	31.796
184.31	28.277
184.53	30.263
184.74	21.343
184.96	25.190
185.17	11.510
185.38	9.437
185.60	15.739
185.81	9.337
186.03	15.439
186.24	17.279
186.45	21.277
186.67	18.631
186.88	24.158
187.10	26.555
187.31	24.761
187.52	24.502
187.74	25.611
187.95	19.789
188.17	14.661
188.38	9.944
188.59	14.899
188.81	6.598
189.02	10.188
189.24	5.732
189.45	6.474
189.66	4.329
189.88	-1.566
190.09	-3.385
190.30	1.020
190.52	10.261
190.73	11.966
190.95	10.493
191.16	11.677
191.37	7.789
191.59	8.275
191.80	9.379
192.02	11.321
192.23	12.397
192.44	5.644
192.66	5.923
192.87	-4.742
193.08	-8.134
193.30	-9.366
193.51	-5.565
193.73	-1.739
193.94	5.897
194.15	8.426
194.37	12.581
194.58	17.519
194.79	12.073
195.01	13.646
195.22	19.667
195.44	20.684
195.65	19.409
195.86	20.573
196.08	14.092
196.29	13.816
196.50	10.030
196.72	10.724
196.93	14.058
197.14	17.863
197.36	17.716
197.57	9.784
197.79	9.997
198.00	7.024
198.21	12.639
198.43	16.782
198.64	12.312
198.85	14.453
199.07	11.588
199.28	10.368
199.49	9.157
199.71	2.626
199.92	7.738
200.13	10.111
200.35	20.609
200.56	3.546
200.78	4.680
200.99	-1.723
201.20	1.802
201.42	8.586
201.63	-0.655
201.84	1.807
202.06	4.754
202.27	2.264
202.48	3.783
202.70	-9.891
202.91	-4.672
203.12	-8.166
203.34	-4.743
203.55	-8.832
203.76	-13.788
203.98	-3.720
204.19	-1.443
204.40	-0.662
204.62	0.304
204.83	-8.062
205.04	-1.911
205.26	-1.943
205.47	2.494
205.68	-0.190
205.90	-0.193
206.11	-1.477
206.32	-5.714
206.54	-5.900
206.75	-4.469
206.96	-6.295
207.18	3.562
207.39	2.823
207.60	9.292
207.82	7.066
208.03	12.287
208.24	10.390
208.45	12.055
208.67	8.737
208.88	5.948
209.09	6.344
209.31	5.147
209.52	-0.412
209.73	-1.771
209.95	-4.107
210.16	0.051
210.37	-2.735
210.59	2.314
210.80	-0.159
211.01	4.289
211.23	5.206
211.44	2.495
211.65	4.705
211.86	6.016
212.08	7.718
212.29	6.313
212.50	-0.537
212.72	-2.301
212.93	-5.477
213.14	-2.097
213.36	-6.430
213.57	-5.818
213.78	-5.825
213.99	-2.252
214.21	-0.516
214.42	-0.318
214.63	-1.178
214.85	-0.487
215.06	2.777
215.27	4.245
215.49	1.741
215.70	4.418
215.91	4.348
216.12	3.331
216.34	1.307
216.55	1.491
216.76	2.089
216.98	3.326
217.19	5.431
217.40	7.466
217.61	7.246
217.83	10.041
218.04	10.099
218.25	8.373
218.47	10.519
218.68	9.648
218.89	7.814
219.10	7.633
219.32	6.838
219.53	7.698
219.74	7.044
219.95	6.180
220.17	4.836
220.38	4.073
220.59	3.111
220.81	1.074
221.02	2.712
221.23	3.455
221.44	2.226
221.66	2.924
221.87	1.272
222.08	1.188
222.29	0.735
222.51	1.927
222.72	1.416
222.93	2.934
223.14	4.431
223.36	3.400
223.57	2.708
223.78	2.521
223.99	3.292
224.21	4.012
224.42	2.835
224.63	2.601
224.84	1.498
225.06	2.118
225.27	2.317
225.48	2.234
225.69	2.391
225.91	3.073
226.12	2.663
226.33	2.547
226.54	2.162
226.76	2.141
226.97	2.221
227.18	2.397
227.39	2.386
227.61	2.402
227.82	2.297
228.03	2.174
228.24	1.996
228.46	2.122
228.67	2.002
228.88	2.091
229.09	2.082
229.31	2.125
229.52	2.049
229.73	2.132
229.94	2.024
230.16	2.141
230.37	2.236
230.58	2.179
230.79	2.274
231.00	2.432
231.22	2.247
231.43	2.661
231.64	2.696
231.85	2.496
232.07	2.219
232.28	2.139
232.49	2.026
232.70	2.043
232.91	2.603
233.13	2.727
233.34	2.722
233.55	3.240
233.76	2.870
233.98	3.086
234.19	3.230
234.40	3.300
234.61	3.309
234.82	3.122
235.04	2.931
235.25	2.773
235.46	2.247
235.67	2.349
235.88	1.960
236.10	2.203
236.31	1.921
236.52	2.013
236.73	2.264
236.94	2.457
237.16	2.328
237.37	2.943
237.58	2.716
237.79	3.027
238.01	2.715
238.22	2.864
238.43	2.526
238.64	2.883
238.85	2.817
239.06	2.312
239.28	2.157
239.49	2.558
239.70	2.066
239.91	2.286
240.12	2.271
240.34	2.323
240.55	2.253
240.76	2.374
240.97	2.180
241.18	2.037
241.40	2.072
241.61	2.043
241.82	1.945
242.03	2.056
242.24	1.960
242.45	1.910
242.67	1.838
242.88	1.940
243.09	1.844
243.30	1.944
243.51	2.308
243.73	2.336
243.94	2.278
244.15	2.225
244.36	2.148
244.57	2.327
244.78	2.403
245.00	2.278
245.21	1.974
245.42	2.055
245.63	1.867
245.84	1.831
246.05	1.840
246.27	1.882
246.48	1.829
246.69	1.862
246.90	1.824
247.11	1.766
247.32	1.770
247.54	1.798
247.75	1.734
247.96	1.805
248.17	1.781
248.38	1.818
248.59	1.768
248.81	1.802
249.02	1.725
249.23	1.640
249.44	1.630
249.65	1.767
249.86	1.612
250.07	1.771
250.29	1.625
250.50	1.439
250.71	1.273
250.92	1.302
251.13	1.468
251.34	1.624
251.55	1.542
251.77	1.657
251.98	1.616
252.19	1.615
252.40	1.502
252.61	1.430
252.82	1.427
253.03	1.512
253.25	1.709
253.46	1.564
253.67	1.384
253.88	1.362
254.09	1.142
254.30	1.004
254.51	1.323
254.73	1.312
254.94	1.672
255.15	1.759
255.36	1.526
255.57	1.051
255.78	1.096
255.99	1.172
256.20	1.373
256.42	1.489
256.63	1.442
256.84	1.390
257.05	1.420
257.26	1.273
257.47	1.254
257.68	1.406
257.89	1.548
258.10	1.537
258.32	1.483
258.53	1.410
258.74	1.392
258.95	1.434
259.16	1.467
259.37	1.432
259.58	1.407
259.79	1.407
260.00	1.439
260.22	1.443
260.43	1.467
260.64	1.460
260.85	1.600
261.06	1.696
261.27	1.742
261.48	1.739
261.69	1.801
261.90	1.881
262.12	1.991
262.33	1.962
262.54	1.996
262.75	2.058
262.96	2.105
263.17	1.974
263.38	1.857
263.59	1.755
263.80	1.700
264.01	1.862
264.22	1.772
264.44	1.765
264.65	1.615
264.86	1.606
265.07	1.493
265.28	1.565
265.49	1.575
265.70	1.565
265.91	1.654
266.12	1.784
266.33	1.671
266.54	1.720
266.75	1.624
266.97	1.706
267.18	1.803
267.39	1.826
267.60	1.732
267.81	1.693
268.02	1.660
268.23	1.734
268.44	1.576
268.65	1.583
268.86	1.656
269.07	1.713
269.28	1.662
269.49	1.504
269.70	1.480
269.92	1.498
270.13	1.418
270.34	1.595
270.55	1.451
270.76	1.520
270.97	1.585
271.18	1.534
271.39	1.448
271.60	1.463
271.81	1.502
272.02	1.516
272.23	1.536
272.44	1.606
272.65	1.466
272.86	1.503
273.07	1.448
273.28	1.469
273.49	1.369
273.71	1.377
273.92	1.421
274.13	1.350
274.34	1.325
274.55	1.331
274.76	1.305
274.97	1.369
275.18	1.288
275.39	1.384
275.60	1.326
275.81	1.550
276.02	1.467
276.23	1.415
276.44	1.463
276.65	1.544
276.86	1.471
277.07	1.421
277.28	1.397
277.49	1.495
277.70	1.293
277.91	1.291
278.12	1.065
278.33	1.174
278.54	1.166
278.75	1.130
278.96	1.025
279.17	1.100
279.39	1.095
279.60	1.035
279.81	0.998
280.02	1.055
280.23	0.976
280.44	1.000
280.65	0.982
280.86	1.005
281.07	1.108
281.28	1.160
281.49	1.076
281.70	1.169
281.91	1.199
282.12	1.311
282.33	1.413
282.54	1.440
282.75	1.584
282.96	1.727
283.17	1.693
283.38	1.658
283.59	1.674
283.80	1.636
284.01	1.460
284.22	1.488
284.43	1.391
284.64	1.304
284.85	1.372
285.06	1.328
285.27	1.253
285.48	1.265
285.69	1.181
285.90	1.232
286.11	1.298
286.32	1.368
286.53	1.343
286.74	1.393
286.95	1.443
287.16	1.485
287.37	1.500
287.58	1.486
287.79	1.465
288.00	1.522
288.21	1.430
288.42	1.397
288.63	1.483
288.84	1.503
289.05	1.444
289.26	1.456
289.47	1.396
289.68	1.322
289.89	1.347
290.10	1.315
290.31	1.302
290.51	1.346
290.72	1.327
290.93	1.389
291.14	1.398
291.35	1.434
291.56	1.390
291.77	1.299
291.98	1.336
292.19	1.366
292.40	1.364
292.61	1.330
292.82	1.288
293.03	1.358
293.24	1.225
293.45	1.249
293.66	1.285
293.87	1.371
294.08	1.368
294.29	1.407
294.50	1.334
294.71	1.365
294.92	1.422
295.13	1.424
295.34	1.301
295.55	1.346
295.76	1.246
295.96	1.194
296.17	1.158
296.38	1.245
296.59	1.206
296.80	1.199
297.01	1.202
297.22	1.200
297.43	1.179
297.64	1.269
297.85	1.225
298.06	1.251
298.27	1.259
298.48	1.276
298.69	1.224
298.90	1.248
299.11	1.263
299.32	1.319
299.53	1.328
299.73	1.343
299.94	1.371
300.15	1.392
300.36	1.398
300.57	1.403
300.78	1.409
300.99	1.427
301.20	1.355
301.41	1.389
301.62	1.331
301.83	1.360
302.04	1.257
302.25	1.223
302.45	1.230
302.66	1.243
302.87	1.265
303.08	1.199
303.29	1.161
303.50	1.253
303.71	1.228
303.92	1.245
304.13	1.240
304.34	1.336
304.55	1.338
304.76	1.364
304.96	1.303
305.17	1.217
305.38	1.214
305.59	1.273
305.80	1.270
306.01	1.303
306.22	1.240
306.43	1.234
306.64	1.148
306.85	1.075
307.06	1.024
307.26	1.102
307.47	1.088
307.68	1.183
307.89	1.137
308.10	1.133
308.31	1.125
308.52	1.208
308.73	1.215
308.94	1.324
309.14	1.389
309.35	1.440
309.56	1.418
309.77	1.428
309.98	1.413
310.19	1.457
310.40	1.393
310.61	1.379
310.82	1.336
311.02	1.281
311.23	1.228
311.44	1.208
311.65	1.141
311.86	1.109
312.07	1.112
312.28	1.021
312.49	0.957
312.69	0.947
312.90	0.979
313.11	1.013
313.32	1.013
313.53	0.996
313.74	0.932
313.95	0.903
314.16	0.939
314.36	1.025
314.57	1.087
314.78	1.177
314.99	1.230
315.20	1.146
315.41	1.182
315.62	1.155
315.82	1.187
316.03	1.199
316.24	1.257
316.45	1.309
316.66	1.240
316.87	1.266
317.08	1.189
317.28	1.244
317.49	1.254
317.70	1.183
317.91	1.242
318.12	1.230
318.33	1.259
318.54	1.249
318.74	1.211
318.95	1.193
319.16	1.217
319.37	1.248
319.58	1.236
319.79	1.236
319.99	1.228
320.20	1.242
320.41	1.248
320.62	1.268
320.83	1.260
321.04	1.287
321.24	1.313
321.45	1.333
321.66	1.349
321.87	1.316
322.08	1.349
322.29	1.359
322.49	1.313
322.70	1.287
322.91	1.264
323.12	1.299
323.33	1.260
323.54	1.243
323.74	1.173
323.95	1.131
324.16	1.137
324.37	1.115
324.58	1.125
324.79	1.153
324.99	1.123
325.20	1.205
325.41	1.167
325.62	1.208
325.83	1.232
326.03	1.192
326.24	1.218
326.45	1.203
326.66	1.155
326.87	1.140
327.07	1.119
327.28	1.232
327.49	1.173
327.70	1.158
327.91	1.134
328.11	1.139
328.32	1.207
328.53	1.234
328.74	1.271
328.95	1.295
329.15	1.305
329.36	1.359
329.57	1.276
329.78	1.264
329.99	1.284
330.19	1.264
330.40	1.251
330.61	1.249
330.82	1.141
331.03	1.044
331.23	1.107
331.44	1.103
331.65	1.058
331.86	1.107
332.07	1.065
332.27	1.064
332.48	1.082
332.69	1.113
332.90	1.127
333.10	1.239
333.31	1.278
333.52	1.220
333.73	1.236
333.94	1.239
334.14	1.225
334.35	1.250
334.56	1.267
334.77	1.253
334.97	1.199
335.18	1.158
335.39	1.085
335.60	1.108
335.80	1.104
336.01	1.078
336.22	1.041
336.43	1.050
336.64	1.047
336.84	1.026
337.05	0.994
337.26	0.981
337.47	0.951
337.67	0.984
337.88	0.965
338.09	0.955
338.30	0.962
338.50	1.042
338.71	1.029
338.92	1.045
339.13	1.109
339.33	1.176
339.54	1.196
339.75	1.240
339.96	1.230
340.16	1.222
340.37	1.267
340.58	1.243
340.79	1.218
340.99	1.198
341.20	1.181
341.41	1.111
341.62	1.045
341.82	1.068
342.03	0.992
342.24	0.969
342.44	0.975
342.65	0.927
342.86	0.945
343.07	0.924
343.27	0.960
343.48	0.958
343.69	0.963
343.90	1.034
344.10	0.989
344.31	1.049
344.52	1.085
344.72	1.075
344.93	1.091
345.14	1.114
345.35	1.080
345.55	1.048
345.76	1.046
345.97	1.073
346.18	1.012
346.38	1.022
346.59	0.989
346.80	0.991
347.00	0.982
347.21	0.975
347.42	0.993
347.62	1.031
347.83	1.020
348.04	1.009
348.25	0.987
348.45	1.009
348.66	1.039
348.87	1.122
349.07	1.088
349.28	1.095
349.49	1.079
349.70	1.061
349.90	1.034
350.11	1.060
350.32	1.036
350.52	1.050
350.73	1.064
350.94	1.056
351.14	1.006
351.35	1.028
351.56	1.034
351.76	1.049
351.97	1.028
352.18	1.062
352.39	1.031
352.59	1.070
352.80	1.039
353.01	1.077
353.21	1.037
353.42	1.018
353.63	0.999
353.83	0.974
354.04	0.958
354.25	0.937
354.45	0.891
354.66	0.922
354.87	0.915
355.07	0.904
355.28	0.843
355.49	0.893
355.69	0.887
355.90	0.883
356.11	0.895
356.31	0.944
356.52	0.969
356.73	1.013
356.93	0.973
357.14	0.952
357.35	0.994
357.55	1.003
357.76	0.970
357.97	0.944
358.17	0.976
358.38	0.983
358.59	0.951
358.79	0.948
359.00	0.908
359.21	0.950
359.41	0.973
359.62	0.980
359.83	0.979
360.03	0.984
360.24	1.047
360.44	1.034
360.65	1.026
360.86	1.021
361.06	0.991
361.27	0.989
361.48	0.954
361.68	0.947
361.89	0.973
362.10	0.963
362.30	0.979
362.51	0.953
362.72	0.962
362.92	0.991
363.13	0.984
363.33	0.976
363.54	1.005
363.75	1.032
363.95	1.047
364.16	1.028
364.37	1.054
364.57	1.080
364.78	1.080
364.98	1.076
365.19	1.043
365.40	1.096
365.60	1.106
365.81	1.107
366.02	1.091
366.22	1.081
366.43	1.055
366.63	1.022
366.84	0.974
367.05	0.999
367.25	0.963
367.46	0.959
367.66	0.937
367.87	0.971
368.08	0.954
368.28	0.963
368.49	0.941
368.69	0.927
368.90	0.942
369.11	0.972
369.31	0.948
369.52	0.995
369.72	1.012
369.93	1.007
370.14	1.005
370.34	0.986
370.55	0.939
370.75	0.957
370.96	0.975
371.17	1.000
371.37	0.963
371.58	1.003
371.78	0.983
371.99	0.990
372.20	0.985
372.40	0.968
372.61	0.973
372.81	1.029
373.02	1.030
373.23	1.011
373.43	1.004
373.64	1.013
373.84	0.973
374.05	0.986
374.25	0.959
374.46	0.933
374.67	0.952
374.87	1.001
375.08	0.974
375.28	0.965
375.49	0.965
375.69	0.962
375.90	0.959
376.11	0.967
376.31	0.946
376.52	0.948
376.72	0.940
376.93	0.937
377.13	0.914
377.34	0.921
377.55	0.942
377.75	0.959
377.96	0.920
378.16	0.938
378.37	0.946
378.57	0.965
378.78	0.984
378.98	0.996
379.19	0.979
379.40	0.950
379.60	0.921
379.81	0.901
380.01	0.874
380.22	0.887
380.42	0.863
380.63	0.835
380.83	0.815
381.04	0.798
381.24	0.804
381.45	0.805
381.66	0.827
381.86	0.854
382.07	0.860
382.27	0.876
382.48	0.879
382.68	0.877
382.89	0.887
383.09	0.900
383.30	0.921
383.50	0.923
383.71	0.905
383.91	0.910
384.12	0.917
384.32	0.910
384.53	0.906
384.73	0.929
384.94	0.946
385.15	0.957
385.35	0.963
385.56	0.949
385.76	0.935
385.97	0.992
386.17	0.980
386.38	0.978
386.58	0.973
386.79	1.008
386.99	0.998
387.20	1.007
387.40	0.994
387.61	0.999
387.81	0.988
388.02	1.003
388.22	0.980
388.43	0.976
388.63	0.965
388.84	1.017
389.04	0.997
389.25	0.997
389.45	0.960
389.66	0.975
389.86	0.973
390.07	0.991
390.27	0.975
390.48	0.948
390.68	0.969
390.89	0.994
391.09	0.968
391.30	0.979
391.50	0.978
391.71	1.007
391.91	0.995
392.12	1.012
392.32	1.017
392.53	1.048
392.73	1.071
392.94	1.059
393.14	1.060
393.35	1.049
393.55	1.029
393.75	1.030
393.96	1.017
394.16	1.012
394.37	0.976
394.57	0.983
394.78	0.974
394.98	0.941
395.19	0.922
395.39	0.917
395.60	0.929
395.80	0.943
396.01	0.942
396.21	0.985
396.42	0.973
396.62	0.977
396.83	0.960
397.03	0.977
397.23	1.010
397.44	1.035
397.64	1.032
397.85	1.019
398.05	1.023
398.26	1.022
398.46	0.983
398.67	1.010
398.87	1.023
399.08	1.025
399.28	1.007
399.48	0.996
399.69	0.972
399.89	0.976
400.10	0.992
400.30	0.987
400.51	0.994
400.71	0.998
400.92	1.003
401.12	0.996
401.32	0.975
401.53	0.966
401.73	0.967
401.94	1.004
402.14	1.001
402.35	1.003
402.55	1.019
402.75	1.012
402.96	1.015
403.16	1.009
403.37	1.007
403.57	1.041
403.78	1.035
403.98	1.046
404.18	1.029
404.39	1.012
404.59	1.012
404.80	0.994
405.00	0.995
405.21	1.014
405.41	1.007
405.61	1.010
405.82	1.002
406.02	1.019
406.23	1.005
406.43	1.019
406.63	1.037
406.84	1.036
407.04	1.035
407.25	1.056
407.45	1.051
407.65	1.051
407.86	1.033
408.06	1.010
408.27	0.994
408.47	1.010
408.67	0.987
408.88	0.982
409.08	0.964
409.29	0.969
409.49	0.954
409.69	0.944
409.90	0.954
410.10	0.980
410.31	0.995
410.51	1.017
410.71	1.018
410.92	1.013
411.12	1.005
411.33	1.022
411.53	1.006
411.73	0.979
411.94	0.988
412.14	0.985
412.34	0.977
412.55	0.993
412.75	0.966
412.96	0.969
413.16	0.974
413.36	0.982
413.57	0.976
413.77	0.974
413.97	1.013
414.18	1.001
414.38	1.015
414.59	1.015
414.79	0.985
414.99	1.003
415.20	0.990
415.40	1.012
415.60	0.995
415.81	0.991
416.01	1.006
416.21	0.991
416.42	1.002
416.62	1.018
416.83	1.001
417.03	1.013
417.23	1.011
417.44	1.012
417.64	0.988
417.84	0.991
418.05	0.997
418.25	0.991
418.45	0.984
418.66	0.973
418.86	0.934
419.06	0.966
419.27	0.950
419.47	0.954
419.67	0.951
419.88	0.957
420.08	0.953
420.28	0.942
420.49	0.947
420.69	0.940
420.89	0.934
421.10	0.943
421.30	0.928
421.50	0.942
421.71	0.934
421.91	0.941
422.11	0.940
422.32	0.960
422.52	0.965
422.72	0.965
422.93	0.988
423.13	1.005
423.33	1.013
423.54	1.008
423.74	1.002
423.94	1.019
424.15	1.006
424.35	1.011
424.55	1.006
424.76	1.011
424.96	1.016
425.16	1.013
425.36	1.004
425.57	1.005
425.77	1.006
425.97	1.015
426.18	1.008
426.38	1.018
426.58	1.028
426.79	1.038
426.99	1.031
427.19	1.032
427.39	1.033
427.60	1.045
427.80	1.056
428.00	1.072
428.21	1.077
428.41	1.074
428.61	1.072
428.82	1.066
429.02	1.066
429.22	1.084
429.42	1.085
429.63	1.086
429.83	1.079
430.03	1.066
430.24	1.061
430.44	1.075
430.64	1.070
430.84	1.085
431.05	1.085
431.25	1.079
431.45	1.055
431.65	1.052
431.86	1.047
432.06	1.049
432.26	1.048
432.47	1.060
432.67	1.041
432.87	1.047
433.07	1.038
433.28	1.038
433.48	1.037
433.68	1.044
433.88	1.054
434.09	1.061
434.29	1.059
434.49	1.069
434.69	1.051
434.90	1.055
435.10	1.047
435.30	1.055
435.51	1.064
435.71	1.060
435.91	1.075
436.11	1.061
436.32	1.037
436.52	1.057
436.72	1.047
436.92	1.047
437.13	1.048
437.33	1.059
437.53	1.043
437.73	1.032
437.93	1.044
438.14	1.042
438.34	1.040
438.54	1.059
438.74	1.052
438.95	1.054
439.15	1.075
439.35	1.081
439.55	1.066
439.76	1.081
439.96	1.090
440.16	1.086
440.36	1.079
440.56	1.076
440.77	1.062
440.97	1.060
441.17	1.056
441.37	1.049
441.58	1.041
441.78	1.071
441.98	1.069
442.18	1.074
442.38	1.072
442.59	1.086
442.79	1.097
442.99	1.119
443.19	1.115
443.40	1.130
443.60	1.130
443.80	1.136
444.00	1.109
444.20	1.107
444.41	1.078
444.61	1.084
444.81	1.083
445.01	1.085
445.21	1.080
445.42	1.096
445.62	1.087
445.82	1.074
446.02	1.075
446.22	1.078
446.43	1.081
446.63	1.086
446.83	1.083
447.03	1.080
447.23	1.079
447.44	1.085
447.64	1.065
447.84	1.073
448.04	1.080
448.24	1.084
448.44	1.086
448.65	1.091
448.85	1.089
449.05	1.106
449.25	1.106
449.45	1.117
449.65	1.126
449.86	1.145
450.06	1.140
450.26	1.149
450.46	1.152
450.66	1.156
450.87	1.152
451.07	1.175
451.27	1.149
451.47	1.152
451.67	1.147
451.87	1.155
452.08	1.150
452.28	1.147
452.48	1.139
452.68	1.144
452.88	1.141
453.08	1.136
453.28	1.127
453.49	1.137
453.69	1.134
453.89	1.133
454.09	1.120
454.29	1.136
454.49	1.151
454.70	1.160
454.90	1.144
455.10	1.141
455.30	1.123
455.50	1.133
455.70	1.139
455.90	1.152
456.11	1.141
456.31	1.146
456.51	1.127
456.71	1.121
456.91	1.129
457.11	1.144
457.31	1.163
457.51	1.187
457.72	1.175
457.92	1.166
458.12	1.147
458.32	1.149
458.52	1.147
458.72	1.159
458.92	1.156
459.12	1.149
459.33	1.133
459.53	1.138
459.73	1.149
459.93	1.153
460.13	1.163
460.33	1.172
460.53	1.176
460.73	1.168
460.93	1.166
461.14	1.171
461.34	1.177
461.54	1.190
461.74	1.188
461.94	1.180
462.14	1.178
462.34	1.169
462.54	1.166
462.74	1.160
462.95	1.174
463.15	1.183
463.35	1.178
463.55	1.193
463.75	1.186
463.95	1.188
464.15	1.181
464.35	1.185
464.55	1.191
464.75	1.185
464.95	1.202
465.16	1.194
465.36	1.183
465.56	1.190
465.76	1.176
465.96	1.182
466.16	1.183
466.36	1.196
466.56	1.191
466.76	1.193
466.96	1.213
467.16	1.213
467.36	1.209
467.57	1.208
467.77	1.204
467.97	1.209
468.17	1.214
468.37	1.207
468.57	1.204
468.77	1.210
468.97	1.209
469.17	1.208
469.37	1.207
469.57	1.220
469.77	1.229
469.97	1.235
470.17	1.240
470.37	1.235
470.57	1.236
470.78	1.233
470.98	1.252
471.18	1.257
471.38	1.248
471.58	1.259
471.78	1.259
471.98	1.256
472.18	1.263
472.38	1.256
472.58	1.269
472.78	1.292
472.98	1.306
473.18	1.301
473.38	1.308
473.58	1.321
473.78	1.319
473.98	1.323
474.18	1.340
474.38	1.336
474.58	1.342
474.78	1.347
474.98	1.337
475.18	1.344
475.38	1.342
475.58	1.341
475.79	1.330
475.99	1.327
476.19	1.319
476.39	1.305
476.59	1.310
476.79	1.319
476.99	1.305
477.19	1.303
477.39	1.286
477.59	1.288
477.79	1.290
477.99	1.293
478.19	1.292
478.39	1.304
478.59	1.313
478.79	1.315
478.99	1.312
479.19	1.320
479.39	1.329
479.59	1.348
479.79	1.345
479.99	1.352
480.19	1.357
480.39	1.352
480.59	1.349
480.79	1.349
480.99	1.351
481.19	1.354
481.39	1.354
481.59	1.352
481.79	1.350
481.99	1.356
482.19	1.348
482.39	1.356
482.59	1.368
482.79	1.369
482.99	1.363
483.19	1.368
483.39	1.383
483.59	1.396
483.79	1.393
483.99	1.388
484.19	1.385
484.39	1.386
484.58	1.383
484.78	1.379
484.98	1.380
485.18	1.382
485.38	1.381
485.58	1.370
485.78	1.354
485.98	1.355
486.18	1.361
486.38	1.368
486.58	1.376
486.78	1.377
486.98	1.387
487.18	1.388
