OOIBase32 Version 2.0.6.5 Data File
++++++++++++++++++++++++++++++++++++
Date: 03-24-2011, 10:55:10
User: Valued Ocean Optics Customer
Spectrometer Serial Number: USB4C01507
Spectrometer Channel: Master
Integration Time (msec): 46
Spectra Averaged: 30
Boxcar Smoothing: 5
Correct for Electrical Dark: Enabled
Time Normalized: Disabled
Dual-beam Reference: Disabled
Reference Channel: Master
Temperature: Not acquired
Spectrometer Type: S4000
ADC Type: USB4000
Number of Pixels in File: 3648
Graph Title: 
>>>>>Begin Spectral Data<<<<<
179.17	1065.589
179.39	2889.970
179.60	320.577
179.82	51.575
180.03	251.239
180.24	-373.400
180.46	-12.806
180.67	77.026
180.89	152.694
181.10	-127.481
181.31	172.894
181.53	27.491
181.74	112.080
181.96	231.921
182.17	21.175
182.39	2.436
182.60	57.002
182.81	69.609
183.03	33.453
183.24	-592.731
183.46	8.162
183.67	3.969
183.88	-3.631
184.10	-3.768
184.31	-7.125
184.53	2.438
184.74	-10.824
184.96	-7.676
185.17	-15.016
185.38	-14.601
185.60	-13.429
185.81	-8.490
186.03	-6.534
186.24	-0.126
186.45	1.236
186.67	5.346
186.88	6.564
187.10	16.314
187.31	8.970
187.52	20.269
187.74	18.326
187.95	17.192
188.17	7.321
188.38	9.664
188.59	6.675
188.81	11.159
189.02	13.795
189.24	19.535
189.45	20.452
189.66	21.864
189.88	8.747
190.09	6.404
190.30	10.127
190.52	12.230
190.73	8.712
190.95	5.732
191.16	7.760
191.37	4.650
191.59	-2.838
191.80	-2.730
192.02	9.794
192.23	22.245
192.44	16.060
192.66	11.947
192.87	-0.440
193.08	6.269
193.30	5.727
193.51	9.787
193.73	6.950
193.94	8.774
194.15	9.245
194.37	7.883
194.58	9.333
194.79	3.870
195.01	9.779
195.22	15.540
195.44	12.624
195.65	18.857
195.86	9.381
196.08	3.840
196.29	4.153
196.50	4.542
196.72	4.416
196.93	5.556
197.14	10.704
197.36	8.094
197.57	7.862
197.79	10.144
198.00	2.347
198.21	12.142
198.43	22.101
198.64	22.383
198.85	20.569
199.07	19.867
199.28	14.641
199.49	12.673
199.71	14.571
199.92	22.845
200.13	17.228
200.35	23.551
200.56	11.183
200.78	6.385
200.99	1.116
201.20	-0.106
201.42	-6.701
201.63	-10.878
201.84	-7.231
202.06	-5.446
202.27	-12.191
202.48	-9.680
202.70	-15.075
202.91	-11.946
203.12	-13.202
203.34	-8.816
203.55	-5.311
203.76	-5.573
203.98	2.038
204.19	3.428
204.40	3.601
204.62	9.028
204.83	7.635
205.04	8.290
205.26	8.020
205.47	9.427
205.68	10.584
205.90	6.465
206.11	6.671
206.32	4.593
206.54	0.594
206.75	-0.396
206.96	-8.247
207.18	-5.913
207.39	-4.945
207.60	5.345
207.82	3.528
208.03	5.383
208.24	6.998
208.45	12.412
208.67	11.433
208.88	10.478
209.09	8.177
209.31	6.577
209.52	2.805
209.73	7.229
209.95	5.270
210.16	6.435
210.37	3.231
210.59	3.851
210.80	0.837
211.01	1.870
211.23	5.182
211.44	4.655
211.65	5.613
211.86	7.728
212.08	5.634
212.29	3.171
212.50	0.985
212.72	-0.647
212.93	1.004
213.14	3.835
213.36	1.638
213.57	0.342
213.78	3.931
213.99	10.086
214.21	12.839
214.42	13.111
214.63	15.490
214.85	14.196
215.06	14.909
215.27	13.575
215.49	10.575
215.70	12.441
215.91	12.472
216.12	10.933
216.34	7.803
216.55	7.054
216.76	7.122
216.98	2.579
217.19	5.410
217.40	8.294
217.61	9.391
217.83	12.050
218.04	10.221
218.25	9.687
218.47	9.411
218.68	9.318
218.89	6.685
219.10	5.516
219.32	4.975
219.53	4.635
219.74	5.009
219.95	3.411
220.17	2.516
220.38	5.341
220.59	4.008
220.81	4.449
221.02	4.721
221.23	6.192
221.44	5.527
221.66	6.784
221.87	6.210
222.08	5.613
222.29	6.764
222.51	6.982
222.72	5.538
222.93	6.630
223.14	6.663
223.36	6.033
223.57	4.830
223.78	5.362
223.99	4.747
224.21	5.840
224.42	4.619
224.63	2.987
224.84	2.682
225.06	3.076
225.27	2.888
225.48	2.380
225.69	2.854
225.91	3.595
226.12	2.983
226.33	3.789
226.54	3.202
226.76	3.515
226.97	3.992
227.18	3.834
227.39	3.612
227.61	3.723
227.82	3.721
228.03	3.765
228.24	3.707
228.46	3.910
228.67	3.800
228.88	3.767
229.09	3.701
229.31	3.586
229.52	3.604
229.73	3.798
229.94	3.762
230.16	3.824
230.37	3.799
230.58	3.660
230.79	3.545
231.00	3.603
231.22	3.940
231.43	4.248
231.64	4.243
231.85	4.353
232.07	4.347
232.28	4.303
232.49	4.170
232.70	3.737
232.91	3.940
233.13	3.880
233.34	3.936
233.55	4.020
233.76	3.871
233.98	4.086
234.19	4.314
234.40	4.189
234.61	4.485
234.82	4.634
235.04	4.726
235.25	4.677
235.46	4.761
235.67	4.502
235.88	4.625
236.10	4.742
236.31	4.361
236.52	4.137
236.73	4.326
236.94	4.160
237.16	3.640
237.37	3.983
237.58	3.916
237.79	4.016
238.01	3.736
238.22	3.231
238.43	3.378
238.64	3.787
238.85	3.481
239.06	3.177
239.28	2.967
239.49	3.251
239.70	3.000
239.91	3.195
240.12	3.253
240.34	3.325
240.55	3.520
240.76	3.488
240.97	3.538
241.18	3.631
241.40	3.654
241.61	3.659
241.82	3.645
242.03	3.743
242.24	3.708
242.45	3.589
242.67	3.695
242.88	3.652
243.09	3.554
243.30	3.449
243.51	3.469
243.73	3.429
243.94	3.392
244.15	3.431
244.36	3.384
244.57	3.494
244.78	3.456
245.00	3.306
245.21	3.155
245.42	3.177
245.63	3.136
245.84	3.158
246.05	3.139
246.27	3.165
246.48	3.142
246.69	3.144
246.90	3.071
247.11	3.053
247.32	3.101
247.54	3.172
247.75	3.084
247.96	3.060
248.17	3.106
248.38	3.130
248.59	3.146
248.81	3.191
249.02	3.088
249.23	3.138
249.44	3.195
249.65	3.226
249.86	2.959
250.07	3.263
250.29	3.290
250.50	2.962
250.71	2.958
250.92	2.784
251.13	2.744
251.34	2.848
251.55	2.749
251.77	2.807
251.98	2.663
252.19	2.703
252.40	2.584
252.61	2.563
252.82	2.496
253.03	2.441
253.25	2.513
253.46	2.282
253.67	2.281
253.88	2.294
254.09	2.190
254.30	2.414
254.51	2.406
254.73	2.404
254.94	2.421
255.15	2.521
255.36	2.494
255.57	2.302
255.78	2.463
255.99	2.486
256.20	2.675
256.42	2.672
256.63	2.471
256.84	2.512
257.05	2.676
257.26	2.674
257.47	2.695
257.68	2.755
257.89	2.831
258.10	2.913
258.32	2.773
258.53	2.672
258.74	2.543
258.95	2.590
259.16	2.555
259.37	2.521
259.58	2.458
259.79	2.507
260.00	2.522
260.22	2.547
260.43	2.525
260.64	2.494
260.85	2.506
261.06	2.641
261.27	2.584
261.48	2.699
261.69	2.702
261.90	2.861
262.12	2.876
262.33	2.867
262.54	2.846
262.75	2.859
262.96	2.951
263.17	2.911
263.38	2.829
263.59	2.979
263.80	2.984
264.01	3.029
264.22	2.912
264.44	2.816
264.65	2.535
264.86	2.484
265.07	2.314
265.28	2.292
265.49	2.372
265.70	2.293
265.91	2.217
266.12	2.165
266.33	2.134
266.54	2.226
266.75	2.191
266.97	2.332
267.18	2.372
267.39	2.454
267.60	2.478
267.81	2.430
268.02	2.453
268.23	2.535
268.44	2.553
268.65	2.456
268.86	2.428
269.07	2.591
269.28	2.469
269.49	2.494
269.70	2.439
269.92	2.456
270.13	2.437
270.34	2.544
270.55	2.394
270.76	2.391
270.97	2.474
271.18	2.564
271.39	2.462
271.60	2.538
271.81	2.528
272.02	2.613
272.23	2.610
272.44	2.686
272.65	2.655
272.86	2.728
273.07	2.729
273.28	2.820
273.49	2.752
273.71	2.681
273.92	2.672
274.13	2.514
274.34	2.449
274.55	2.483
274.76	2.338
274.97	2.306
275.18	2.219
275.39	2.168
275.60	2.044
275.81	2.099
276.02	2.147
276.23	2.226
276.44	2.318
276.65	2.275
276.86	2.204
277.07	2.299
277.28	2.353
277.49	2.487
277.70	2.517
277.91	2.566
278.12	2.446
278.33	2.356
278.54	2.312
278.75	2.319
278.96	2.222
279.17	2.237
279.39	2.217
279.60	2.161
279.81	2.060
280.02	2.012
280.23	1.994
280.44	2.045
280.65	2.092
280.86	2.059
281.07	2.146
281.28	2.305
281.49	2.255
281.70	2.350
281.91	2.298
282.12	2.376
282.33	2.482
282.54	2.441
282.75	2.455
282.96	2.627
283.17	2.672
283.38	2.595
283.59	2.519
283.80	2.501
284.01	2.255
284.22	2.314
284.43	2.291
284.64	2.209
284.85	2.263
285.06	2.281
285.27	2.156
285.48	2.116
285.69	2.102
285.90	2.189
286.11	2.289
286.32	2.410
286.53	2.345
286.74	2.382
286.95	2.355
287.16	2.339
287.37	2.248
287.58	2.331
287.79	2.286
288.00	2.273
288.21	2.091
288.42	1.965
288.63	1.985
288.84	2.014
289.05	1.968
289.26	2.046
289.47	2.061
289.68	2.040
289.89	2.002
290.10	2.036
290.31	2.012
290.51	2.053
290.72	2.102
290.93	2.117
291.14	2.137
291.35	2.068
291.56	2.004
291.77	1.968
291.98	2.050
292.19	2.078
292.40	2.157
292.61	2.149
292.82	2.176
293.03	2.152
293.24	2.089
293.45	2.154
293.66	2.231
293.87	2.307
294.08	2.200
294.29	2.168
294.50	2.042
294.71	2.003
294.92	2.087
295.13	2.108
295.34	2.068
295.55	2.072
295.76	1.979
295.96	1.986
296.17	1.976
296.38	2.113
296.59	2.111
296.80	2.178
297.01	2.190
297.22	2.157
297.43	2.162
297.64	2.214
297.85	2.208
298.06	2.215
298.27	2.179
298.48	2.202
298.69	2.116
298.90	2.134
299.11	2.085
299.32	2.047
299.53	2.091
299.73	2.073
299.94	2.092
300.15	2.100
300.36	2.186
300.57	2.142
300.78	2.110
300.99	2.102
301.20	2.028
301.41	2.023
301.62	2.037
301.83	2.023
302.04	1.980
302.25	1.911
302.45	1.888
302.66	1.785
302.87	1.827
303.08	1.790
303.29	1.838
303.50	1.932
303.71	2.012
303.92	2.005
304.13	1.976
304.34	1.998
304.55	2.013
304.76	2.078
304.96	2.070
305.17	2.109
305.38	2.100
305.59	2.099
305.80	2.030
306.01	1.976
306.22	1.879
306.43	1.889
306.64	1.846
306.85	1.821
307.06	1.820
307.26	1.862
307.47	1.817
307.68	1.905
307.89	1.889
308.10	1.905
308.31	1.893
308.52	1.979
308.73	1.967
308.94	2.009
309.14	2.034
309.35	2.071
309.56	2.071
309.77	2.105
309.98	2.103
310.19	2.120
310.40	2.153
310.61	2.110
310.82	2.065
311.02	2.043
311.23	2.004
311.44	1.970
311.65	1.890
311.86	1.909
312.07	1.895
312.28	1.834
312.49	1.788
312.69	1.717
312.90	1.715
313.11	1.703
313.32	1.724
313.53	1.766
313.74	1.728
313.95	1.753
314.16	1.635
314.36	1.632
314.57	1.663
314.78	1.652
314.99	1.699
315.20	1.793
315.41	1.871
315.62	1.836
315.82	1.859
316.03	1.897
316.24	1.892
316.45	2.067
316.66	2.053
316.87	2.097
317.08	2.089
317.28	2.152
317.49	2.079
317.70	2.068
317.91	2.082
318.12	2.098
318.33	2.067
318.54	2.059
318.74	1.964
318.95	1.976
319.16	1.947
319.37	1.969
319.58	1.912
319.79	1.883
319.99	1.869
320.20	1.866
320.41	1.812
320.62	1.832
320.83	1.812
321.04	1.777
321.24	1.769
321.45	1.795
321.66	1.782
321.87	1.805
322.08	1.888
322.29	1.873
322.49	1.911
322.70	1.901
322.91	1.969
323.12	2.009
323.33	2.038
323.54	2.004
323.74	1.937
323.95	1.953
324.16	1.929
324.37	1.914
324.58	1.934
324.79	1.920
324.99	1.930
325.20	1.946
325.41	1.939
325.62	1.939
325.83	1.960
326.03	1.918
326.24	1.907
326.45	1.920
326.66	1.884
326.87	1.833
327.07	1.803
327.28	1.789
327.49	1.758
327.70	1.705
327.91	1.716
328.11	1.734
328.32	1.775
328.53	1.841
328.74	1.852
328.95	1.866
329.15	1.920
329.36	1.966
329.57	1.959
329.78	1.983
329.99	2.024
330.19	1.969
330.40	1.927
330.61	1.902
330.82	1.799
331.03	1.711
331.23	1.744
331.44	1.720
331.65	1.669
331.86	1.722
332.07	1.689
332.27	1.639
332.48	1.663
332.69	1.699
332.90	1.772
333.10	1.842
333.31	1.879
333.52	1.823
333.73	1.807
333.94	1.767
334.14	1.757
334.35	1.726
334.56	1.739
334.77	1.736
334.97	1.734
335.18	1.638
335.39	1.639
335.60	1.663
335.80	1.666
336.01	1.681
336.22	1.694
336.43	1.662
336.64	1.683
336.84	1.716
337.05	1.714
337.26	1.669
337.47	1.719
337.67	1.716
337.88	1.652
338.09	1.653
338.30	1.654
338.50	1.724
338.71	1.752
338.92	1.766
339.13	1.790
339.33	1.812
339.54	1.783
339.75	1.775
339.96	1.766
340.16	1.763
340.37	1.822
340.58	1.780
340.79	1.757
340.99	1.740
341.20	1.684
341.41	1.648
341.62	1.627
341.82	1.690
342.03	1.646
342.24	1.580
342.44	1.622
342.65	1.563
342.86	1.584
343.07	1.570
343.27	1.600
343.48	1.586
343.69	1.588
343.90	1.610
344.10	1.562
344.31	1.599
344.52	1.673
344.72	1.679
344.93	1.674
345.14	1.677
345.35	1.661
345.55	1.664
345.76	1.677
345.97	1.671
346.18	1.655
346.38	1.722
346.59	1.699
346.80	1.661
347.00	1.625
347.21	1.648
347.42	1.671
347.62	1.751
347.83	1.692
348.04	1.707
348.25	1.690
348.45	1.706
348.66	1.676
348.87	1.724
349.07	1.711
349.28	1.752
349.49	1.711
349.70	1.745
349.90	1.683
350.11	1.692
350.32	1.644
350.52	1.681
350.73	1.671
350.94	1.689
351.14	1.634
351.35	1.680
351.56	1.635
351.76	1.672
351.97	1.617
352.18	1.650
352.39	1.644
352.59	1.708
352.80	1.684
353.01	1.717
353.21	1.718
353.42	1.745
353.63	1.716
353.83	1.704
354.04	1.685
354.25	1.676
354.45	1.612
354.66	1.641
354.87	1.622
355.07	1.617
355.28	1.570
355.49	1.547
355.69	1.551
355.90	1.547
356.11	1.608
356.31	1.626
356.52	1.662
356.73	1.695
356.93	1.670
357.14	1.641
357.35	1.665
357.55	1.687
357.76	1.653
357.97	1.615
358.17	1.654
358.38	1.641
358.59	1.646
358.79	1.607
359.00	1.597
359.21	1.616
359.41	1.616
359.62	1.609
359.83	1.612
360.03	1.616
360.24	1.665
360.44	1.649
360.65	1.634
360.86	1.626
361.06	1.633
361.27	1.633
361.48	1.610
361.68	1.648
361.89	1.637
362.10	1.613
362.30	1.638
362.51	1.625
362.72	1.639
362.92	1.641
363.13	1.606
363.33	1.622
363.54	1.647
363.75	1.675
363.95	1.655
364.16	1.660
364.37	1.703
364.57	1.724
364.78	1.715
364.98	1.666
365.19	1.633
365.40	1.670
365.60	1.654
365.81	1.673
366.02	1.657
366.22	1.668
366.43	1.684
366.63	1.640
366.84	1.623
367.05	1.624
367.25	1.614
367.46	1.622
367.66	1.625
367.87	1.641
368.08	1.600
368.28	1.586
368.49	1.571
368.69	1.517
368.90	1.510
369.11	1.515
369.31	1.532
369.52	1.587
369.72	1.613
369.93	1.590
370.14	1.579
370.34	1.589
370.55	1.604
370.75	1.617
370.96	1.647
371.17	1.680
371.37	1.672
371.58	1.655
371.78	1.640
371.99	1.629
372.20	1.618
372.40	1.614
372.61	1.592
372.81	1.606
373.02	1.617
373.23	1.586
373.43	1.559
373.64	1.537
373.84	1.528
374.05	1.555
374.25	1.556
374.46	1.556
374.67	1.550
374.87	1.592
375.08	1.581
375.28	1.543
375.49	1.547
375.69	1.562
375.90	1.569
376.11	1.578
376.31	1.522
376.52	1.528
376.72	1.536
376.93	1.538
377.13	1.480
377.34	1.473
377.55	1.503
377.75	1.513
377.96	1.469
378.16	1.474
378.37	1.498
378.57	1.537
378.78	1.547
378.98	1.557
379.19	1.569
379.40	1.571
379.60	1.549
379.81	1.536
380.01	1.527
380.22	1.560
380.42	1.554
380.63	1.544
380.83	1.513
381.04	1.476
381.24	1.467
381.45	1.474
381.66	1.505
381.86	1.533
382.07	1.551
382.27	1.585
382.48	1.563
382.68	1.566
382.89	1.564
383.09	1.591
383.30	1.625
383.50	1.618
383.71	1.588
383.91	1.592
384.12	1.589
384.32	1.574
384.53	1.547
384.73	1.582
384.94	1.579
385.15	1.571
385.35	1.556
385.56	1.533
385.76	1.501
385.97	1.523
386.17	1.507
386.38	1.503
386.58	1.479
386.79	1.525
386.99	1.495
387.20	1.500
387.40	1.485
387.61	1.515
387.81	1.519
388.02	1.563
388.22	1.542
388.43	1.542
388.63	1.562
388.84	1.594
389.04	1.556
389.25	1.585
389.45	1.572
389.66	1.596
389.86	1.563
390.07	1.578
390.27	1.563
390.48	1.558
390.68	1.577
390.89	1.581
391.09	1.593
391.30	1.601
391.50	1.603
391.71	1.632
391.91	1.632
392.12	1.666
392.32	1.654
392.53	1.667
392.73	1.681
392.94	1.664
393.14	1.654
393.35	1.626
393.55	1.633
393.75	1.623
393.96	1.588
394.16	1.574
394.37	1.534
394.57	1.560
394.78	1.572
394.98	1.554
395.19	1.547
395.39	1.532
395.60	1.534
395.80	1.533
396.01	1.527
396.21	1.560
396.42	1.567
396.62	1.558
396.83	1.537
397.03	1.533
397.23	1.555
397.44	1.585
397.64	1.595
397.85	1.598
398.05	1.597
398.26	1.590
398.46	1.576
398.67	1.556
398.87	1.569
399.08	1.543
399.28	1.543
399.48	1.548
399.69	1.509
399.89	1.525
400.10	1.529
400.30	1.511
400.51	1.502
400.71	1.496
400.92	1.519
401.12	1.532
401.32	1.555
401.53	1.541
401.73	1.526
401.94	1.537
402.14	1.523
402.35	1.533
402.55	1.544
402.75	1.555
402.96	1.558
403.16	1.567
403.37	1.559
403.57	1.570
403.78	1.576
403.98	1.589
404.18	1.579
404.39	1.573
404.59	1.564
404.80	1.557
405.00	1.543
405.21	1.571
405.41	1.553
405.61	1.562
405.82	1.570
406.02	1.582
406.23	1.568
406.43	1.590
406.63	1.592
406.84	1.608
407.04	1.630
407.25	1.659
407.45	1.630
407.65	1.639
407.86	1.622
408.06	1.600
408.27	1.589
408.47	1.613
408.67	1.596
408.88	1.591
409.08	1.574
409.29	1.577
409.49	1.560
409.69	1.564
409.90	1.578
410.10	1.592
410.31	1.598
410.51	1.611
410.71	1.599
410.92	1.584
411.12	1.584
411.33	1.592
411.53	1.590
411.73	1.589
411.94	1.607
412.14	1.573
412.34	1.571
412.55	1.574
412.75	1.574
412.96	1.576
413.16	1.595
413.36	1.600
413.57	1.599
413.77	1.577
413.97	1.611
414.18	1.598
414.38	1.600
414.59	1.619
414.79	1.614
414.99	1.578
415.20	1.574
415.40	1.590
415.60	1.600
415.81	1.584
416.01	1.576
416.21	1.558
416.42	1.570
416.62	1.601
416.83	1.583
417.03	1.583
417.23	1.588
417.44	1.584
417.64	1.564
417.84	1.551
418.05	1.572
418.25	1.578
418.45	1.572
418.66	1.554
418.86	1.531
419.06	1.542
419.27	1.541
419.47	1.557
419.67	1.558
419.88	1.556
420.08	1.540
420.28	1.514
420.49	1.512
420.69	1.514
420.89	1.518
421.10	1.528
421.30	1.521
421.50	1.523
421.71	1.512
421.91	1.515
422.11	1.535
422.32	1.555
422.52	1.566
422.72	1.588
422.93	1.598
423.13	1.605
423.33	1.592
423.54	1.584
423.74	1.580
423.94	1.587
424.15	1.569
424.35	1.562
424.55	1.553
424.76	1.560
424.96	1.546
425.16	1.534
425.36	1.531
425.57	1.551
425.77	1.550
425.97	1.553
426.18	1.561
426.38	1.573
426.58	1.578
426.79	1.595
426.99	1.581
427.19	1.601
427.39	1.611
427.60	1.616
427.80	1.611
428.00	1.635
428.21	1.628
428.41	1.628
428.61	1.641
428.82	1.635
429.02	1.649
429.22	1.678
429.42	1.650
429.63	1.655
429.83	1.640
430.03	1.647
430.24	1.636
430.44	1.659
430.64	1.655
430.84	1.667
431.05	1.655
431.25	1.633
431.45	1.611
431.65	1.616
431.86	1.609
432.06	1.619
432.26	1.609
432.47	1.608
432.67	1.604
432.87	1.605
433.07	1.594
433.28	1.608
433.48	1.618
433.68	1.624
433.88	1.639
434.09	1.644
434.29	1.641
434.49	1.638
434.69	1.641
434.90	1.633
435.10	1.619
435.30	1.634
435.51	1.644
435.71	1.641
435.91	1.651
436.11	1.644
436.32	1.637
436.52	1.639
436.72	1.653
436.92	1.662
437.13	1.665
437.33	1.669
437.53	1.647
437.73	1.634
437.93	1.628
438.14	1.624
438.34	1.611
438.54	1.621
438.74	1.621
438.95	1.609
439.15	1.604
439.35	1.616
439.55	1.619
439.76	1.636
439.96	1.642
440.16	1.646
440.36	1.649
440.56	1.650
440.77	1.637
440.97	1.640
441.17	1.640
441.37	1.646
441.58	1.635
441.78	1.648
441.98	1.641
442.18	1.639
442.38	1.635
442.59	1.648
442.79	1.660
442.99	1.686
443.19	1.689
443.40	1.706
443.60	1.700
443.80	1.696
444.00	1.678
444.20	1.665
444.41	1.653
444.61	1.657
444.81	1.644
445.01	1.646
445.21	1.636
445.42	1.634
445.62	1.622
445.82	1.617
446.02	1.625
446.22	1.625
446.43	1.625
446.63	1.630
446.83	1.624
447.03	1.624
447.23	1.625
447.44	1.626
447.64	1.623
447.84	1.629
448.04	1.629
448.24	1.629
448.44	1.633
448.65	1.640
448.85	1.637
449.05	1.665
449.25	1.661
449.45	1.665
449.65	1.674
449.86	1.692
450.06	1.696
450.26	1.709
450.46	1.708
450.66	1.713
450.87	1.727
451.07	1.739
451.27	1.722
451.47	1.745
451.67	1.747
451.87	1.742
452.08	1.730
452.28	1.734
452.48	1.724
452.68	1.735
452.88	1.738
453.08	1.738
453.28	1.740
453.49	1.739
453.69	1.730
453.89	1.736
454.09	1.742
454.29	1.747
454.49	1.748
454.70	1.755
454.90	1.735
455.10	1.736
455.30	1.720
455.50	1.722
455.70	1.714
455.90	1.714
456.11	1.695
456.31	1.680
456.51	1.682
456.71	1.671
456.91	1.677
457.11	1.704
457.31	1.697
457.51	1.721
457.72	1.713
457.92	1.723
458.12	1.713
458.32	1.721
458.52	1.739
458.72	1.737
458.92	1.725
459.12	1.724
459.33	1.702
459.53	1.713
459.73	1.719
459.93	1.722
460.13	1.733
460.33	1.733
460.53	1.722
460.73	1.710
460.93	1.712
461.14	1.725
461.34	1.733
461.54	1.749
461.74	1.749
461.94	1.744
462.14	1.749
462.34	1.740
462.54	1.750
462.74	1.768
462.95	1.774
463.15	1.778
463.35	1.777
463.55	1.766
463.75	1.768
463.95	1.772
464.15	1.767
464.35	1.771
464.55	1.758
464.75	1.755
464.95	1.760
465.16	1.764
465.36	1.755
465.56	1.755
465.76	1.767
465.96	1.764
466.16	1.769
466.36	1.764
466.56	1.755
466.76	1.762
466.96	1.765
467.16	1.762
467.36	1.757
467.57	1.760
467.77	1.758
467.97	1.747
468.17	1.750
468.37	1.738
468.57	1.748
468.77	1.757
468.97	1.761
469.17	1.767
469.37	1.767
469.57	1.774
469.77	1.781
469.97	1.784
470.17	1.788
470.37	1.781
470.57	1.781
470.78	1.761
470.98	1.764
471.18	1.758
471.38	1.754
471.58	1.761
471.78	1.762
471.98	1.760
472.18	1.776
472.38	1.784
472.58	1.797
472.78	1.809
472.98	1.827
473.18	1.822
473.38	1.827
473.58	1.831
473.78	1.826
473.98	1.827
474.18	1.849
474.38	1.829
474.58	1.835
474.78	1.838
474.98	1.835
475.18	1.841
475.38	1.848
475.58	1.847
475.79	1.848
475.99	1.848
476.19	1.852
476.39	1.827
476.59	1.834
476.79	1.835
476.99	1.827
477.19	1.839
477.39	1.831
477.59	1.827
477.79	1.826
477.99	1.821
478.19	1.819
478.39	1.818
478.59	1.830
478.79	1.832
478.99	1.829
479.19	1.835
479.39	1.830
479.59	1.830
479.79	1.822
479.99	1.835
480.19	1.835
480.39	1.831
480.59	1.833
480.79	1.834
480.99	1.836
481.19	1.840
481.39	1.840
481.59	1.834
481.79	1.847
481.99	1.861
482.19	1.863
482.39	1.875
482.59	1.885
482.79	1.886
482.99	1.880
483.19	1.894
483.39	1.920
483.59	1.936
483.79	1.939
483.99	1.930
484.19	1.919
484.39	1.916
484.58	1.915
484.78	1.915
484.98	1.915
485.18	1.922
485.38	1.918
485.58	1.899
485.78	1.879
485.98	1.873
486.18	1.882
486.38	1.898
486.58	1.901
486.78	1.900
486.98	1.907
487.18	1.916
487.38	1.914
