OOIBase32 Version 2.0.6.5 Data File
++++++++++++++++++++++++++++++++++++
Date: 03-24-2011, 10:55:12
User: Valued Ocean Optics Customer
Spectrometer Serial Number: USB4C01507
Spectrometer Channel: Master
Integration Time (msec): 46
Spectra Averaged: 30
Boxcar Smoothing: 5
Correct for Electrical Dark: Enabled
Time Normalized: Disabled
Dual-beam Reference: Disabled
Reference Channel: Master
Temperature: Not acquired
Spectrometer Type: S4000
ADC Type: USB4000
Number of Pixels in File: 3648
Graph Title: 
>>>>>Begin Spectral Data<<<<<
179.17	1227.877
179.39	2475.410
179.60	-96.703
179.82	131.601
180.03	429.989
180.24	-209.806
180.46	66.740
180.67	-349.694
180.89	151.278
181.10	-65.970
181.31	120.841
181.53	-93.291
181.74	9.044
181.96	-41.444
182.17	118.812
182.39	6.926
182.60	56.254
182.81	37.941
183.03	17.132
183.24	-640.893
183.46	26.923
183.67	19.420
183.88	7.913
184.10	12.455
184.31	20.256
184.53	33.183
184.74	37.636
184.96	32.520
185.17	34.996
185.38	38.173
185.60	39.407
185.81	32.913
186.03	27.479
186.24	29.397
186.45	27.061
186.67	15.943
186.88	13.336
187.10	8.360
187.31	4.973
187.52	-3.614
187.74	-1.406
187.95	-8.034
188.17	-9.850
188.38	-3.695
188.59	-6.274
188.81	-13.562
189.02	-0.599
189.24	-1.943
189.45	0.721
189.66	1.207
189.88	-3.859
190.09	-13.140
190.30	-10.683
190.52	-6.248
190.73	-2.877
190.95	-2.325
191.16	4.158
191.37	-7.268
191.59	-9.755
191.80	-13.963
192.02	-8.436
192.23	-10.216
192.44	-7.345
192.66	-1.856
192.87	-10.820
193.08	-15.176
193.30	-12.458
193.51	-7.164
193.73	4.004
193.94	11.519
194.15	11.700
194.37	10.183
194.58	13.440
194.79	7.129
195.01	3.682
195.22	8.164
195.44	10.946
195.65	9.252
195.86	6.721
196.08	-0.412
196.29	-2.853
196.50	-2.039
196.72	0.844
196.93	5.610
197.14	9.605
197.36	11.610
197.57	3.978
197.79	3.794
198.00	2.547
198.21	2.207
198.43	8.102
198.64	10.532
198.85	7.768
199.07	7.735
199.28	3.219
199.49	-0.050
199.71	-0.838
199.92	8.692
200.13	2.398
200.35	1.340
200.56	-4.346
200.78	-9.619
200.99	-10.574
201.20	-4.871
201.42	-4.007
201.63	-10.447
201.84	-2.181
202.06	-2.387
202.27	-1.976
202.48	3.046
202.70	1.187
202.91	5.291
203.12	7.554
203.34	5.671
203.55	1.392
203.76	-0.620
203.98	13.268
204.19	10.228
204.40	10.425
204.62	7.837
204.83	7.787
205.04	13.988
205.26	9.670
205.47	11.659
205.68	12.697
205.90	14.808
206.11	16.028
206.32	7.114
206.54	9.852
206.75	10.245
206.96	12.635
207.18	12.769
207.39	10.685
207.60	18.417
207.82	15.006
208.03	17.911
208.24	16.969
208.45	17.348
208.67	16.791
208.88	11.254
209.09	9.949
209.31	10.379
209.52	5.959
209.73	4.756
209.95	5.183
210.16	7.553
210.37	4.644
210.59	7.798
210.80	8.524
211.01	10.002
211.23	13.409
211.44	11.284
211.65	11.320
211.86	12.826
212.08	15.669
212.29	12.129
212.50	12.123
212.72	11.508
212.93	6.447
213.14	8.931
213.36	7.021
213.57	6.645
213.78	9.722
213.99	9.734
214.21	12.393
214.42	12.238
214.63	13.509
214.85	9.474
215.06	9.877
215.27	14.611
215.49	9.315
215.70	11.170
215.91	10.492
216.12	7.193
216.34	7.740
216.55	4.819
216.76	2.637
216.98	-0.682
217.19	2.808
217.40	4.375
217.61	4.428
217.83	6.234
218.04	6.389
218.25	5.122
218.47	6.769
218.68	5.699
218.89	6.636
219.10	7.466
219.32	6.546
219.53	4.987
219.74	6.030
219.95	2.906
220.17	1.875
220.38	2.247
220.59	1.881
220.81	1.128
221.02	2.247
221.23	1.951
221.44	1.159
221.66	3.354
221.87	3.817
222.08	3.722
222.29	4.507
222.51	6.003
222.72	4.460
222.93	5.895
223.14	7.033
223.36	5.653
223.57	7.060
223.78	7.145
223.99	6.071
224.21	5.568
224.42	3.892
224.63	2.892
224.84	2.364
225.06	3.271
225.27	2.737
225.48	2.638
225.69	3.073
225.91	2.266
226.12	2.063
226.33	2.481
226.54	2.766
226.76	3.360
226.97	3.936
227.18	3.698
227.39	3.665
227.61	3.603
227.82	3.521
228.03	3.497
228.24	3.377
228.46	3.509
228.67	3.544
228.88	3.563
229.09	3.442
229.31	3.389
229.52	3.491
229.73	3.607
229.94	3.616
230.16	3.758
230.37	3.895
230.58	4.041
230.79	3.892
231.00	4.005
231.22	4.286
231.43	4.232
231.64	4.061
231.85	4.075
232.07	3.677
232.28	3.553
232.49	3.362
232.70	3.304
232.91	3.627
233.13	3.863
233.34	4.023
233.55	3.913
233.76	4.007
233.98	4.107
234.19	4.272
234.40	4.086
234.61	4.317
234.82	4.383
235.04	4.255
235.25	4.263
235.46	4.226
235.67	3.503
235.88	3.395
236.10	3.564
236.31	3.489
236.52	3.222
236.73	4.017
236.94	4.055
237.16	3.456
237.37	3.746
237.58	3.514
237.79	3.541
238.01	3.856
238.22	3.424
238.43	3.288
238.64	3.459
238.85	3.196
239.06	2.935
239.28	2.695
239.49	2.957
239.70	2.774
239.91	2.732
240.12	2.554
240.34	2.608
240.55	2.881
240.76	2.911
240.97	2.966
241.18	2.932
241.40	2.906
241.61	2.987
241.82	3.023
242.03	3.080
242.24	3.154
242.45	3.137
242.67	3.182
242.88	3.117
243.09	3.002
243.30	2.780
243.51	3.119
243.73	3.075
243.94	3.083
244.15	3.157
244.36	3.158
244.57	3.152
244.78	3.169
245.00	2.995
245.21	2.856
245.42	2.932
245.63	2.954
245.84	2.870
246.05	2.823
246.27	2.873
246.48	2.866
246.69	2.798
246.90	2.802
247.11	2.771
247.32	2.765
247.54	2.812
247.75	2.831
247.96	2.828
248.17	2.809
248.38	2.853
248.59	2.789
248.81	2.687
249.02	2.748
249.23	2.601
249.44	2.672
249.65	2.695
249.86	2.537
250.07	2.353
250.29	2.258
250.50	2.034
250.71	2.077
250.92	2.002
251.13	2.280
251.34	2.378
251.55	2.451
251.77	2.536
251.98	2.519
252.19	2.604
252.40	2.625
252.61	2.725
252.82	2.881
253.03	2.765
253.25	2.927
253.46	2.625
253.67	2.636
253.88	2.524
254.09	2.603
254.30	2.650
254.51	2.871
254.73	2.825
254.94	2.907
255.15	2.907
255.36	2.967
255.57	2.636
255.78	2.867
255.99	2.722
256.20	2.840
256.42	2.641
256.63	2.467
256.84	2.190
257.05	2.270
257.26	2.223
257.47	2.084
257.68	2.088
257.89	2.238
258.10	2.257
258.32	2.257
258.53	2.247
258.74	2.202
258.95	2.271
259.16	2.323
259.37	2.303
259.58	2.249
259.79	2.315
260.00	2.354
260.22	2.387
260.43	2.417
260.64	2.397
260.85	2.462
261.06	2.524
261.27	2.572
261.48	2.599
261.69	2.543
261.90	2.596
262.12	2.554
262.33	2.650
262.54	2.605
262.75	2.454
262.96	2.476
263.17	2.487
263.38	2.515
263.59	2.404
263.80	2.294
264.01	2.556
264.22	2.612
264.44	2.629
264.65	2.338
264.86	2.248
265.07	2.156
265.28	2.208
265.49	2.059
265.70	2.097
265.91	2.154
266.12	2.185
266.33	2.076
266.54	2.060
266.75	2.048
266.97	2.172
267.18	2.157
267.39	2.125
267.60	2.079
267.81	2.129
268.02	1.994
268.23	1.975
268.44	1.909
268.65	1.883
268.86	1.978
269.07	1.994
269.28	1.833
269.49	1.908
269.70	2.014
269.92	1.986
270.13	1.962
270.34	2.140
270.55	2.053
270.76	1.985
270.97	2.074
271.18	2.072
271.39	2.000
271.60	2.069
271.81	2.134
272.02	2.089
272.23	2.198
272.44	2.228
272.65	2.123
272.86	2.236
273.07	2.313
273.28	2.241
273.49	2.152
273.71	2.139
273.92	2.211
274.13	2.010
274.34	2.054
274.55	1.996
274.76	1.907
274.97	1.967
275.18	1.912
275.39	1.958
275.60	2.016
275.81	2.162
276.02	2.145
276.23	2.074
276.44	2.108
276.65	2.068
276.86	2.128
277.07	2.202
277.28	2.302
277.49	2.379
277.70	2.266
277.91	2.253
278.12	2.053
278.33	2.018
278.54	2.055
278.75	2.051
278.96	2.046
279.17	1.871
279.39	1.801
279.60	1.690
279.81	1.668
280.02	1.698
280.23	1.712
280.44	1.736
280.65	1.880
280.86	1.852
281.07	1.995
281.28	2.012
281.49	2.045
281.70	2.089
281.91	2.042
282.12	2.022
282.33	2.083
282.54	2.072
282.75	2.159
282.96	2.184
283.17	2.224
283.38	2.170
283.59	2.178
283.80	2.136
284.01	2.102
284.22	2.155
284.43	2.102
284.64	2.038
284.85	2.042
285.06	1.986
285.27	1.917
285.48	1.880
285.69	1.908
285.90	1.967
286.11	2.034
286.32	2.046
286.53	1.988
286.74	2.072
286.95	2.082
287.16	2.081
287.37	2.055
287.58	2.101
287.79	2.039
288.00	1.997
288.21	1.877
288.42	1.805
288.63	1.809
288.84	1.844
289.05	1.806
289.26	1.797
289.47	1.832
289.68	1.823
289.89	1.819
290.10	1.760
290.31	1.649
290.51	1.681
290.72	1.704
290.93	1.695
291.14	1.747
291.35	1.650
291.56	1.719
291.77	1.582
291.98	1.605
292.19	1.612
292.40	1.744
292.61	1.744
292.82	1.772
293.03	1.820
293.24	1.788
293.45	1.745
293.66	1.823
293.87	1.795
294.08	1.850
294.29	1.892
294.50	1.842
294.71	1.813
294.92	1.933
295.13	1.943
295.34	1.863
295.55	1.907
295.76	1.839
295.96	1.840
296.17	1.839
296.38	1.889
296.59	1.870
296.80	1.821
297.01	1.856
297.22	1.830
297.43	1.825
297.64	1.887
297.85	1.893
298.06	1.924
298.27	1.954
298.48	1.963
298.69	1.918
298.90	1.977
299.11	2.037
299.32	2.007
299.53	2.004
299.73	1.972
299.94	1.939
300.15	1.850
300.36	1.868
300.57	1.800
300.78	1.778
300.99	1.768
301.20	1.767
301.41	1.753
301.62	1.765
301.83	1.749
302.04	1.709
302.25	1.692
302.45	1.739
302.66	1.665
302.87	1.681
303.08	1.650
303.29	1.656
303.50	1.611
303.71	1.669
303.92	1.633
304.13	1.601
304.34	1.660
304.55	1.706
304.76	1.727
304.96	1.805
305.17	1.812
305.38	1.831
305.59	1.818
305.80	1.757
306.01	1.742
306.22	1.718
306.43	1.776
306.64	1.753
306.85	1.741
307.06	1.720
307.26	1.651
307.47	1.590
307.68	1.635
307.89	1.688
308.10	1.702
308.31	1.733
308.52	1.804
308.73	1.817
308.94	1.842
309.14	1.819
309.35	1.868
309.56	1.919
309.77	1.940
309.98	1.965
310.19	1.931
310.40	1.931
310.61	1.858
310.82	1.815
311.02	1.788
311.23	1.775
311.44	1.704
311.65	1.670
311.86	1.642
312.07	1.623
312.28	1.556
312.49	1.545
312.69	1.562
312.90	1.600
313.11	1.577
313.32	1.583
313.53	1.556
313.74	1.639
313.95	1.613
314.16	1.596
314.36	1.618
314.57	1.668
314.78	1.664
314.99	1.690
315.20	1.681
315.41	1.711
315.62	1.657
315.82	1.707
316.03	1.676
316.24	1.695
316.45	1.734
316.66	1.718
316.87	1.721
317.08	1.674
317.28	1.649
317.49	1.622
317.70	1.642
317.91	1.725
318.12	1.707
318.33	1.736
318.54	1.709
318.74	1.682
318.95	1.676
319.16	1.679
319.37	1.743
319.58	1.758
319.79	1.748
319.99	1.762
320.20	1.719
320.41	1.659
320.62	1.662
320.83	1.665
321.04	1.676
321.24	1.693
321.45	1.712
321.66	1.691
321.87	1.672
322.08	1.681
322.29	1.620
322.49	1.640
322.70	1.680
322.91	1.670
323.12	1.735
323.33	1.749
323.54	1.742
323.74	1.735
323.95	1.733
324.16	1.741
324.37	1.766
324.58	1.796
324.79	1.747
324.99	1.681
325.20	1.709
325.41	1.660
325.62	1.696
325.83	1.681
326.03	1.610
326.24	1.622
326.45	1.644
326.66	1.590
326.87	1.558
327.07	1.624
327.28	1.637
327.49	1.598
327.70	1.594
327.91	1.562
328.11	1.583
328.32	1.610
328.53	1.665
328.74	1.641
328.95	1.654
329.15	1.703
329.36	1.665
329.57	1.671
329.78	1.682
329.99	1.677
330.19	1.622
330.40	1.597
330.61	1.588
330.82	1.500
331.03	1.475
331.23	1.487
331.44	1.456
331.65	1.474
331.86	1.503
332.07	1.518
332.27	1.476
332.48	1.505
332.69	1.537
332.90	1.561
333.10	1.576
333.31	1.612
333.52	1.580
333.73	1.587
333.94	1.541
334.14	1.536
334.35	1.529
334.56	1.600
334.77	1.578
334.97	1.578
335.18	1.535
335.39	1.531
335.60	1.501
335.80	1.509
336.01	1.466
336.22	1.468
336.43	1.446
336.64	1.452
336.84	1.395
337.05	1.403
337.26	1.352
337.47	1.371
337.67	1.438
337.88	1.401
338.09	1.404
338.30	1.447
338.50	1.441
338.71	1.464
338.92	1.442
339.13	1.460
339.33	1.478
339.54	1.469
339.75	1.458
339.96	1.398
340.16	1.430
340.37	1.433
340.58	1.437
340.79	1.487
340.99	1.460
341.20	1.417
341.41	1.398
341.62	1.408
341.82	1.449
342.03	1.419
342.24	1.401
342.44	1.433
342.65	1.398
342.86	1.375
343.07	1.334
343.27	1.398
343.48	1.423
343.69	1.436
343.90	1.459
344.10	1.427
344.31	1.430
344.52	1.487
344.72	1.437
344.93	1.452
345.14	1.455
345.35	1.482
345.55	1.441
345.76	1.434
345.97	1.456
346.18	1.376
346.38	1.382
346.59	1.403
346.80	1.365
347.00	1.363
347.21	1.393
347.42	1.426
347.62	1.420
347.83	1.399
348.04	1.375
348.25	1.349
348.45	1.389
348.66	1.447
348.87	1.461
349.07	1.437
349.28	1.435
349.49	1.423
349.70	1.450
349.90	1.409
350.11	1.413
350.32	1.437
350.52	1.437
350.73	1.452
350.94	1.398
351.14	1.369
351.35	1.387
351.56	1.401
351.76	1.402
351.97	1.345
352.18	1.364
352.39	1.379
352.59	1.398
352.80	1.392
353.01	1.427
353.21	1.438
353.42	1.436
353.63	1.434
353.83	1.411
354.04	1.422
354.25	1.423
354.45	1.402
354.66	1.389
354.87	1.346
355.07	1.321
355.28	1.287
355.49	1.313
355.69	1.350
355.90	1.354
356.11	1.413
356.31	1.432
356.52	1.440
356.73	1.473
356.93	1.481
357.14	1.498
357.35	1.553
357.55	1.561
357.76	1.529
357.97	1.495
358.17	1.535
358.38	1.517
358.59	1.501
358.79	1.511
359.00	1.477
359.21	1.468
359.41	1.450
359.62	1.430
359.83	1.383
360.03	1.381
360.24	1.401
360.44	1.394
360.65	1.375
360.86	1.347
361.06	1.318
361.27	1.338
361.48	1.340
361.68	1.395
361.89	1.416
362.10	1.444
362.30	1.434
362.51	1.426
362.72	1.432
362.92	1.430
363.13	1.435
363.33	1.434
363.54	1.454
363.75	1.442
363.95	1.405
364.16	1.381
364.37	1.403
364.57	1.422
364.78	1.409
364.98	1.375
365.19	1.358
365.40	1.372
365.60	1.387
365.81	1.401
366.02	1.414
366.22	1.394
366.43	1.402
366.63	1.365
366.84	1.357
367.05	1.359
367.25	1.326
367.46	1.325
367.66	1.345
367.87	1.353
368.08	1.346
368.28	1.377
368.49	1.395
368.69	1.390
368.90	1.418
369.11	1.405
369.31	1.437
369.52	1.471
369.72	1.455
369.93	1.412
370.14	1.424
370.34	1.391
370.55	1.354
370.75	1.356
370.96	1.336
371.17	1.319
371.37	1.327
371.58	1.301
371.78	1.297
371.99	1.331
372.20	1.357
372.40	1.330
372.61	1.334
372.81	1.360
373.02	1.367
373.23	1.358
373.43	1.357
373.64	1.372
373.84	1.346
374.05	1.369
374.25	1.374
374.46	1.337
374.67	1.321
374.87	1.351
375.08	1.330
375.28	1.279
375.49	1.302
375.69	1.285
375.90	1.262
376.11	1.286
376.31	1.264
376.52	1.250
376.72	1.261
376.93	1.273
377.13	1.259
377.34	1.277
377.55	1.310
377.75	1.311
377.96	1.299
378.16	1.311
378.37	1.338
378.57	1.346
378.78	1.372
378.98	1.368
379.19	1.393
379.40	1.355
379.60	1.312
379.81	1.321
380.01	1.298
380.22	1.301
380.42	1.295
380.63	1.271
380.83	1.239
381.04	1.197
381.24	1.219
381.45	1.201
381.66	1.208
381.86	1.223
382.07	1.202
382.27	1.228
382.48	1.236
382.68	1.229
382.89	1.243
383.09	1.266
383.30	1.270
383.50	1.237
383.71	1.207
383.91	1.236
384.12	1.261
384.32	1.256
384.53	1.254
384.73	1.261
384.94	1.277
385.15	1.277
385.35	1.286
385.56	1.302
385.76	1.292
385.97	1.322
386.17	1.302
386.38	1.287
386.58	1.286
386.79	1.313
386.99	1.312
387.20	1.289
387.40	1.269
387.61	1.266
387.81	1.272
388.02	1.283
388.22	1.272
388.43	1.272
388.63	1.246
388.84	1.272
389.04	1.224
389.25	1.228
389.45	1.204
389.66	1.247
389.86	1.235
390.07	1.218
390.27	1.224
390.48	1.216
390.68	1.234
390.89	1.265
391.09	1.288
391.30	1.317
391.50	1.338
391.71	1.366
391.91	1.341
392.12	1.362
392.32	1.373
392.53	1.371
392.73	1.385
392.94	1.368
393.14	1.376
393.35	1.359
393.55	1.354
393.75	1.338
393.96	1.344
394.16	1.310
394.37	1.282
394.57	1.289
394.78	1.324
394.98	1.301
395.19	1.300
395.39	1.278
395.60	1.258
395.80	1.253
396.01	1.241
396.21	1.267
396.42	1.278
396.62	1.289
396.83	1.261
397.03	1.260
397.23	1.287
397.44	1.303
397.64	1.312
397.85	1.331
398.05	1.332
398.26	1.341
398.46	1.320
398.67	1.331
398.87	1.341
399.08	1.342
399.28	1.312
399.48	1.295
399.69	1.262
399.89	1.251
400.10	1.259
400.30	1.257
400.51	1.250
400.71	1.242
400.92	1.251
401.12	1.252
401.32	1.247
401.53	1.246
401.73	1.255
401.94	1.295
402.14	1.301
402.35	1.309
402.55	1.325
402.75	1.330
402.96	1.336
403.16	1.341
403.37	1.332
403.57	1.363
403.78	1.384
403.98	1.397
404.18	1.378
404.39	1.380
404.59	1.356
404.80	1.344
405.00	1.339
405.21	1.338
405.41	1.316
405.61	1.327
405.82	1.327
406.02	1.314
406.23	1.304
406.43	1.310
406.63	1.322
406.84	1.342
407.04	1.334
407.25	1.345
407.45	1.351
407.65	1.371
407.86	1.363
408.06	1.329
408.27	1.313
408.47	1.331
408.67	1.318
408.88	1.295
409.08	1.289
409.29	1.312
409.49	1.311
409.69	1.292
409.90	1.287
410.10	1.281
410.31	1.306
410.51	1.332
410.71	1.322
410.92	1.316
411.12	1.328
411.33	1.324
411.53	1.313
411.73	1.301
411.94	1.331
412.14	1.328
412.34	1.345
412.55	1.342
412.75	1.340
412.96	1.316
413.16	1.330
413.36	1.329
413.57	1.330
413.77	1.321
413.97	1.345
414.18	1.335
414.38	1.345
414.59	1.342
414.79	1.330
414.99	1.297
415.20	1.333
415.40	1.341
415.60	1.339
415.81	1.317
416.01	1.328
416.21	1.330
416.42	1.334
416.62	1.340
416.83	1.325
417.03	1.320
417.23	1.330
417.44	1.301
417.64	1.293
417.84	1.286
418.05	1.318
418.25	1.306
418.45	1.292
418.66	1.286
418.86	1.262
419.06	1.281
419.27	1.283
419.47	1.287
419.67	1.296
419.88	1.288
420.08	1.286
420.28	1.265
420.49	1.270
420.69	1.264
420.89	1.263
421.10	1.273
421.30	1.250
421.50	1.253
421.71	1.258
421.91	1.258
422.11	1.270
422.32	1.281
422.52	1.282
422.72	1.286
422.93	1.297
423.13	1.308
423.33	1.318
423.54	1.328
423.74	1.322
423.94	1.319
424.15	1.312
424.35	1.307
424.55	1.303
424.76	1.304
424.96	1.304
425.16	1.299
425.36	1.291
425.57	1.275
425.77	1.270
425.97	1.283
426.18	1.295
426.38	1.306
426.58	1.309
426.79	1.316
426.99	1.309
427.19	1.306
427.39	1.314
427.60	1.315
427.80	1.338
428.00	1.357
428.21	1.355
428.41	1.334
428.61	1.327
428.82	1.316
429.02	1.315
429.22	1.336
429.42	1.345
429.63	1.324
429.83	1.321
430.03	1.304
430.24	1.291
430.44	1.296
430.64	1.305
430.84	1.305
431.05	1.303
431.25	1.307
431.45	1.288
431.65	1.276
431.86	1.290
432.06	1.303
432.26	1.305
432.47	1.324
432.67	1.313
432.87	1.316
433.07	1.324
433.28	1.337
433.48	1.331
433.68	1.327
433.88	1.338
434.09	1.338
434.29	1.324
434.49	1.339
434.69	1.320
434.90	1.318
435.10	1.296
435.30	1.294
435.51	1.305
435.71	1.305
435.91	1.319
436.11	1.316
436.32	1.311
436.52	1.315
436.72	1.310
436.92	1.315
437.13	1.328
437.33	1.334
437.53	1.330
437.73	1.297
437.93	1.299
438.14	1.303
438.34	1.304
438.54	1.314
438.74	1.323
438.95	1.309
439.15	1.315
439.35	1.305
439.55	1.311
439.76	1.316
439.96	1.341
440.16	1.350
440.36	1.352
440.56	1.349
440.77	1.336
440.97	1.328
441.17	1.336
441.37	1.333
441.58	1.344
441.78	1.365
441.98	1.366
442.18	1.352
442.38	1.342
442.59	1.336
442.79	1.338
442.99	1.356
443.19	1.366
443.40	1.363
443.60	1.370
443.80	1.370
444.00	1.355
444.20	1.348
444.41	1.349
444.61	1.353
444.81	1.362
445.01	1.360
445.21	1.355
445.42	1.352
445.62	1.352
445.82	1.338
446.02	1.337
446.22	1.334
446.43	1.331
446.63	1.331
446.83	1.327
447.03	1.321
447.23	1.324
447.44	1.328
447.64	1.326
447.84	1.332
448.04	1.340
448.24	1.334
448.44	1.336
448.65	1.342
448.85	1.348
449.05	1.357
449.25	1.356
449.45	1.364
449.65	1.379
449.86	1.390
450.06	1.389
450.26	1.387
450.46	1.398
450.66	1.394
450.87	1.391
451.07	1.401
451.27	1.393
451.47	1.399
451.67	1.399
451.87	1.390
452.08	1.380
452.28	1.380
452.48	1.384
452.68	1.382
452.88	1.385
453.08	1.395
453.28	1.389
453.49	1.401
453.69	1.412
453.89	1.402
454.09	1.407
454.29	1.416
454.49	1.417
454.70	1.420
454.90	1.431
455.10	1.421
455.30	1.409
455.50	1.410
455.70	1.404
455.90	1.393
456.11	1.393
456.31	1.382
456.51	1.378
456.71	1.383
456.91	1.401
457.11	1.404
457.31	1.414
457.51	1.421
457.72	1.418
457.92	1.414
458.12	1.410
458.32	1.411
458.52	1.422
458.72	1.422
458.92	1.415
459.12	1.403
459.33	1.389
459.53	1.399
459.73	1.413
459.93	1.411
460.13	1.415
460.33	1.412
460.53	1.413
460.73	1.394
460.93	1.396
461.14	1.397
461.34	1.402
461.54	1.406
461.74	1.399
461.94	1.384
462.14	1.388
462.34	1.385
462.54	1.399
462.74	1.393
462.95	1.422
463.15	1.425
463.35	1.424
463.55	1.418
463.75	1.421
463.95	1.429
464.15	1.450
464.35	1.454
464.55	1.455
464.75	1.440
464.95	1.455
465.16	1.430
465.36	1.425
465.56	1.428
465.76	1.434
465.96	1.437
466.16	1.440
466.36	1.429
466.56	1.424
466.76	1.421
466.96	1.436
467.16	1.423
467.36	1.432
467.57	1.440
467.77	1.443
467.97	1.447
468.17	1.443
468.37	1.435
468.57	1.445
468.77	1.449
468.97	1.453
469.17	1.451
469.37	1.466
469.57	1.469
469.77	1.476
469.97	1.477
470.17	1.473
470.37	1.472
470.57	1.473
470.78	1.466
470.98	1.471
471.18	1.475
471.38	1.478
471.58	1.479
471.78	1.493
471.98	1.479
472.18	1.494
472.38	1.485
472.58	1.506
472.78	1.519
472.98	1.523
473.18	1.524
473.38	1.524
473.58	1.533
473.78	1.532
473.98	1.526
474.18	1.546
474.38	1.531
474.58	1.548
474.78	1.542
474.98	1.538
475.18	1.538
475.38	1.540
475.58	1.543
475.79	1.533
475.99	1.528
476.19	1.531
476.39	1.517
476.59	1.520
476.79	1.519
476.99	1.519
477.19	1.518
477.39	1.510
477.59	1.516
477.79	1.513
477.99	1.513
478.19	1.518
478.39	1.517
478.59	1.524
478.79	1.523
478.99	1.523
479.19	1.532
479.39	1.533
479.59	1.543
479.79	1.537
479.99	1.545
480.19	1.540
480.39	1.531
480.59	1.533
480.79	1.534
480.99	1.539
481.19	1.542
481.39	1.535
481.59	1.539
481.79	1.545
481.99	1.550
482.19	1.549
482.39	1.560
482.59	1.566
482.79	1.560
482.99	1.553
483.19	1.561
483.39	1.582
483.59	1.597
483.79	1.597
483.99	1.586
484.19	1.577
484.39	1.574
484.58	1.573
484.78	1.574
484.98	1.577
485.18	1.583
485.38	1.581
485.58	1.560
485.78	1.540
485.98	1.535
486.18	1.542
486.38	1.557
486.58	1.568
486.78	1.566
486.98	1.572
487.18	1.578
