OOIBase32 Version 2.0.6.5 Data File
++++++++++++++++++++++++++++++++++++
Date: 03-24-2011, 10:55:14
User: Valued Ocean Optics Customer
Spectrometer Serial Number: USB4C01507
Spectrometer Channel: Master
Integration Time (msec): 46
Spectra Averaged: 30
Boxcar Smoothing: 5
Correct for Electrical Dark: Enabled
Time Normalized: Disabled
Dual-beam Reference: Disabled
Reference Channel: Master
Temperature: Not acquired
Spectrometer Type: S4000
ADC Type: USB4000
Number of Pixels in File: 3648
Graph Title: 
>>>>>Begin Spectral Data<<<<<
179.17	1164.946
179.39	2775.086
179.60	164.027
179.82	-247.383
180.03	-129.285
180.24	20.591
180.46	-14.868
180.67	328.917
180.89	73.956
181.10	-83.206
181.31	33.835
181.53	-155.211
181.74	23.304
181.96	53.215
182.17	-71.908
182.39	-2.027
182.60	86.251
182.81	177.029
183.03	193.197
183.24	-311.720
183.46	-0.423
183.67	6.447
183.88	-8.449
184.10	-0.450
184.31	-9.064
184.53	1.688
184.74	-3.841
184.96	9.651
185.17	10.304
185.38	17.837
185.60	20.674
185.81	22.094
186.03	17.349
186.24	22.194
186.45	28.215
186.67	30.429
186.88	28.383
187.10	25.357
187.31	25.337
187.52	30.719
187.74	21.510
187.95	19.326
188.17	10.954
188.38	19.257
188.59	24.257
188.81	10.919
189.02	14.935
189.24	16.046
189.45	27.038
189.66	19.561
189.88	6.876
190.09	13.620
190.30	10.809
190.52	16.450
190.73	9.847
190.95	3.725
191.16	11.830
191.37	7.315
191.59	-0.201
191.80	-8.617
192.02	0.283
192.23	9.202
192.44	3.081
192.66	9.510
192.87	2.707
193.08	1.029
193.30	-5.408
193.51	-4.140
193.73	4.873
193.94	12.141
194.15	13.842
194.37	13.032
194.58	16.882
194.79	12.877
195.01	9.985
195.22	11.450
195.44	10.140
195.65	18.698
195.86	22.858
196.08	12.300
196.29	12.221
196.50	8.044
196.72	9.269
196.93	6.074
197.14	6.657
197.36	8.899
197.57	3.315
197.79	4.880
198.00	0.523
198.21	-3.142
198.43	3.651
198.64	2.396
198.85	2.595
199.07	1.099
199.28	4.178
199.49	0.419
199.71	-0.152
199.92	8.836
200.13	8.806
200.35	10.871
200.56	10.986
200.78	8.510
200.99	2.735
201.20	3.184
201.42	3.750
201.63	-5.847
201.84	5.043
202.06	9.434
202.27	10.835
202.48	15.536
202.70	9.507
202.91	8.668
203.12	4.287
203.34	7.595
203.55	9.664
203.76	9.020
203.98	15.002
204.19	14.583
204.40	10.159
204.62	3.752
204.83	-2.390
205.04	2.521
205.26	0.145
205.47	2.497
205.68	0.388
205.90	-2.202
206.11	-2.152
206.32	-5.710
206.54	-10.342
206.75	-9.307
206.96	-6.818
207.18	-1.384
207.39	0.989
207.60	7.396
207.82	6.623
208.03	8.388
208.24	11.257
208.45	13.282
208.67	10.314
208.88	8.406
209.09	2.232
209.31	4.042
209.52	0.599
209.73	-1.768
209.95	-3.373
210.16	2.871
210.37	3.977
210.59	5.407
210.80	5.230
211.01	6.027
211.23	10.621
211.44	12.678
211.65	12.232
211.86	13.440
212.08	14.711
212.29	15.434
212.50	11.521
212.72	9.434
212.93	6.424
213.14	5.307
213.36	8.212
213.57	4.702
213.78	5.983
213.99	5.407
214.21	8.470
214.42	9.604
214.63	8.794
214.85	5.321
215.06	5.064
215.27	5.761
215.49	4.527
215.70	1.987
215.91	1.690
216.12	2.706
216.34	6.132
216.55	2.623
216.76	3.408
216.98	-0.946
217.19	2.473
217.40	5.648
217.61	6.287
217.83	9.208
218.04	10.429
218.25	9.208
218.47	8.116
218.68	5.751
218.89	6.745
219.10	5.462
219.32	5.840
219.53	5.364
219.74	5.699
219.95	4.512
220.17	2.666
220.38	3.321
220.59	4.598
220.81	4.761
221.02	6.445
221.23	6.728
221.44	6.196
221.66	7.056
221.87	8.166
222.08	7.263
222.29	8.452
222.51	8.791
222.72	8.373
222.93	8.025
223.14	8.409
223.36	6.460
223.57	5.362
223.78	4.785
223.99	5.303
224.21	3.957
224.42	3.886
224.63	2.705
224.84	2.061
225.06	2.447
225.27	2.998
225.48	2.907
225.69	3.420
225.91	3.542
226.12	3.096
226.33	3.274
226.54	3.024
226.76	3.012
226.97	3.113
227.18	2.920
227.39	2.729
227.61	2.797
227.82	2.740
228.03	2.703
228.24	2.813
228.46	2.956
228.67	2.900
228.88	2.953
229.09	2.853
229.31	2.861
229.52	2.974
229.73	3.096
229.94	2.897
230.16	2.941
230.37	2.960
230.58	2.853
230.79	2.770
231.00	2.997
231.22	3.083
231.43	3.237
231.64	3.206
231.85	3.481
232.07	3.405
232.28	3.540
232.49	3.528
232.70	3.353
232.91	3.402
233.13	3.595
233.34	3.432
233.55	3.828
233.76	3.862
233.98	4.078
234.19	3.990
234.40	3.952
234.61	4.047
234.82	4.119
235.04	3.957
235.25	4.233
235.46	4.068
235.67	3.731
235.88	3.474
236.10	3.427
236.31	3.318
236.52	3.017
236.73	3.605
236.94	3.456
237.16	3.300
237.37	3.798
237.58	3.227
237.79	3.441
238.01	3.192
238.22	3.075
238.43	3.164
238.64	3.311
238.85	3.398
239.06	2.855
239.28	2.875
239.49	2.823
239.70	2.553
239.91	2.573
240.12	2.339
240.34	2.497
240.55	2.531
240.76	2.587
240.97	2.467
241.18	2.539
241.40	2.587
241.61	2.516
241.82	2.602
242.03	2.783
242.24	2.812
242.45	2.850
242.67	2.927
242.88	2.921
243.09	2.740
243.30	2.616
243.51	2.696
243.73	2.702
243.94	2.800
244.15	2.633
244.36	2.544
244.57	2.647
244.78	2.668
245.00	2.486
245.21	2.400
245.42	2.455
245.63	2.408
245.84	2.361
246.05	2.266
246.27	2.255
246.48	2.230
246.69	2.167
246.90	2.175
247.11	2.130
247.32	2.145
247.54	2.172
247.75	2.143
247.96	2.153
248.17	2.144
248.38	2.284
248.59	2.259
248.81	2.320
249.02	2.410
249.23	2.243
249.44	2.152
249.65	2.291
249.86	1.930
250.07	2.010
250.29	2.040
250.50	1.863
250.71	1.672
250.92	1.587
251.13	1.578
251.34	1.632
251.55	1.721
251.77	1.865
251.98	1.774
252.19	1.914
252.40	1.819
252.61	1.781
252.82	1.690
253.03	1.721
253.25	1.797
253.46	1.750
253.67	1.658
253.88	1.519
254.09	1.475
254.30	1.355
254.51	1.484
254.73	1.430
254.94	1.508
255.15	1.682
255.36	1.657
255.57	1.618
255.78	1.532
255.99	1.488
256.20	1.797
256.42	1.929
256.63	1.929
256.84	1.902
257.05	2.017
257.26	2.121
257.47	2.083
257.68	2.058
257.89	2.110
258.10	2.168
258.32	2.167
258.53	2.047
258.74	1.899
258.95	1.901
259.16	1.905
259.37	1.898
259.58	1.861
259.79	1.897
260.00	1.875
260.22	1.867
260.43	1.889
260.64	1.812
260.85	1.841
261.06	1.978
261.27	2.015
261.48	1.968
261.69	1.903
261.90	1.799
262.12	1.798
262.33	1.834
262.54	1.891
262.75	1.800
262.96	1.860
263.17	1.762
263.38	1.692
263.59	1.738
263.80	1.791
264.01	1.853
264.22	1.946
264.44	1.872
264.65	1.890
264.86	1.759
265.07	1.642
265.28	1.830
265.49	1.925
265.70	1.811
265.91	1.730
266.12	1.739
266.33	1.754
266.54	1.768
266.75	1.767
266.97	1.798
267.18	1.851
267.39	1.953
267.60	1.828
267.81	1.688
268.02	1.693
268.23	1.770
268.44	1.697
268.65	1.672
268.86	1.690
269.07	1.778
269.28	1.664
269.49	1.710
269.70	1.661
269.92	1.702
270.13	1.760
270.34	1.863
270.55	1.811
270.76	1.890
270.97	1.972
271.18	2.022
271.39	1.944
271.60	2.029
271.81	1.994
272.02	2.056
272.23	2.070
272.44	2.055
272.65	1.968
272.86	1.996
273.07	1.976
273.28	1.940
273.49	1.876
273.71	1.873
273.92	1.866
274.13	1.786
274.34	1.655
274.55	1.686
274.76	1.705
274.97	1.747
275.18	1.669
275.39	1.682
275.60	1.718
275.81	1.833
276.02	1.776
276.23	1.740
276.44	1.753
276.65	1.874
276.86	1.736
277.07	1.721
277.28	1.728
277.49	1.762
277.70	1.707
277.91	1.617
278.12	1.452
278.33	1.442
278.54	1.434
278.75	1.480
278.96	1.415
279.17	1.478
279.39	1.494
279.60	1.512
279.81	1.478
280.02	1.447
280.23	1.460
280.44	1.434
280.65	1.491
280.86	1.448
281.07	1.539
281.28	1.605
281.49	1.593
281.70	1.633
281.91	1.618
282.12	1.640
282.33	1.741
282.54	1.720
282.75	1.820
282.96	1.900
283.17	1.944
283.38	1.833
283.59	1.771
283.80	1.693
284.01	1.548
284.22	1.524
284.43	1.515
284.64	1.472
284.85	1.534
285.06	1.525
285.27	1.498
285.48	1.459
285.69	1.461
285.90	1.498
286.11	1.569
286.32	1.691
286.53	1.699
286.74	1.739
286.95	1.712
287.16	1.739
287.37	1.719
287.58	1.615
287.79	1.663
288.00	1.700
288.21	1.665
288.42	1.628
288.63	1.663
288.84	1.674
289.05	1.691
289.26	1.766
289.47	1.716
289.68	1.686
289.89	1.736
290.10	1.643
290.31	1.589
290.51	1.567
290.72	1.566
290.93	1.528
291.14	1.491
291.35	1.447
291.56	1.374
291.77	1.317
291.98	1.338
292.19	1.408
292.40	1.531
292.61	1.559
292.82	1.584
293.03	1.695
293.24	1.633
293.45	1.691
293.66	1.716
293.87	1.719
294.08	1.709
294.29	1.769
294.50	1.626
294.71	1.633
294.92	1.699
295.13	1.670
295.34	1.550
295.55	1.567
295.76	1.500
295.96	1.459
296.17	1.514
296.38	1.598
296.59	1.538
296.80	1.566
297.01	1.536
297.22	1.487
297.43	1.493
297.64	1.502
297.85	1.480
298.06	1.461
298.27	1.483
298.48	1.437
298.69	1.416
298.90	1.395
299.11	1.439
299.32	1.406
299.53	1.411
299.73	1.415
299.94	1.502
300.15	1.476
300.36	1.580
300.57	1.587
300.78	1.609
300.99	1.544
301.20	1.522
301.41	1.502
301.62	1.618
301.83	1.570
302.04	1.584
302.25	1.540
302.45	1.546
302.66	1.466
302.87	1.411
303.08	1.375
303.29	1.437
303.50	1.496
303.71	1.557
303.92	1.450
304.13	1.497
304.34	1.512
304.55	1.479
304.76	1.525
304.96	1.547
305.17	1.628
305.38	1.636
305.59	1.534
305.80	1.561
306.01	1.491
306.22	1.474
306.43	1.475
306.64	1.384
306.85	1.350
307.06	1.376
307.26	1.412
307.47	1.365
307.68	1.388
307.89	1.427
308.10	1.369
308.31	1.409
308.52	1.451
308.73	1.424
308.94	1.517
309.14	1.573
309.35	1.539
309.56	1.525
309.77	1.493
309.98	1.472
310.19	1.482
310.40	1.482
310.61	1.455
310.82	1.469
311.02	1.450
311.23	1.389
311.44	1.306
311.65	1.269
311.86	1.242
312.07	1.251
312.28	1.248
312.49	1.197
312.69	1.200
312.90	1.150
313.11	1.122
313.32	1.132
313.53	1.176
313.74	1.192
313.95	1.163
314.16	1.169
314.36	1.179
314.57	1.239
314.78	1.329
314.99	1.351
315.20	1.407
315.41	1.385
315.62	1.317
315.82	1.325
316.03	1.376
316.24	1.454
316.45	1.507
316.66	1.464
316.87	1.471
317.08	1.434
317.28	1.417
317.49	1.399
317.70	1.381
317.91	1.469
318.12	1.496
318.33	1.499
318.54	1.443
318.74	1.392
318.95	1.410
319.16	1.355
319.37	1.362
319.58	1.330
319.79	1.289
319.99	1.322
320.20	1.338
320.41	1.275
320.62	1.264
320.83	1.264
321.04	1.264
321.24	1.252
321.45	1.307
321.66	1.299
321.87	1.342
322.08	1.362
322.29	1.343
322.49	1.323
322.70	1.278
322.91	1.301
323.12	1.335
323.33	1.330
323.54	1.305
323.74	1.241
323.95	1.237
324.16	1.267
324.37	1.261
324.58	1.277
324.79	1.241
324.99	1.255
325.20	1.302
325.41	1.289
325.62	1.265
325.83	1.307
326.03	1.262
326.24	1.278
326.45	1.259
326.66	1.238
326.87	1.238
327.07	1.263
327.28	1.268
327.49	1.186
327.70	1.178
327.91	1.218
328.11	1.183
328.32	1.255
328.53	1.281
328.74	1.275
328.95	1.286
329.15	1.277
329.36	1.329
329.57	1.322
329.78	1.338
329.99	1.341
330.19	1.294
330.40	1.349
330.61	1.305
330.82	1.230
331.03	1.187
331.23	1.222
331.44	1.257
331.65	1.178
331.86	1.225
332.07	1.242
332.27	1.254
332.48	1.301
332.69	1.258
332.90	1.279
333.10	1.284
333.31	1.321
333.52	1.279
333.73	1.277
333.94	1.301
334.14	1.282
334.35	1.253
334.56	1.234
334.77	1.192
334.97	1.230
335.18	1.217
335.39	1.292
335.60	1.276
335.80	1.269
336.01	1.238
336.22	1.178
336.43	1.202
336.64	1.221
336.84	1.245
337.05	1.272
337.26	1.222
337.47	1.204
337.67	1.178
337.88	1.168
338.09	1.198
338.30	1.220
338.50	1.261
338.71	1.265
338.92	1.277
339.13	1.281
339.33	1.268
339.54	1.245
339.75	1.268
339.96	1.261
340.16	1.253
340.37	1.258
340.58	1.258
340.79	1.260
340.99	1.205
341.20	1.163
341.41	1.127
341.62	1.138
341.82	1.162
342.03	1.149
342.24	1.148
342.44	1.159
342.65	1.147
342.86	1.102
343.07	1.094
343.27	1.153
343.48	1.173
343.69	1.176
343.90	1.204
344.10	1.182
344.31	1.174
344.52	1.200
344.72	1.169
344.93	1.164
345.14	1.190
345.35	1.173
345.55	1.184
345.76	1.176
345.97	1.193
346.18	1.148
346.38	1.193
346.59	1.179
346.80	1.160
347.00	1.173
347.21	1.190
347.42	1.192
347.62	1.181
347.83	1.120
348.04	1.115
348.25	1.082
348.45	1.103
348.66	1.123
348.87	1.165
349.07	1.122
349.28	1.123
349.49	1.125
349.70	1.163
349.90	1.183
350.11	1.189
350.32	1.182
350.52	1.215
350.73	1.211
350.94	1.209
351.14	1.202
351.35	1.214
351.56	1.230
351.76	1.221
351.97	1.144
352.18	1.172
352.39	1.180
352.59	1.218
352.80	1.211
353.01	1.244
353.21	1.193
353.42	1.178
353.63	1.157
353.83	1.137
354.04	1.112
354.25	1.126
354.45	1.092
354.66	1.092
354.87	1.057
355.07	1.040
355.28	0.996
355.49	1.040
355.69	1.067
355.90	1.119
356.11	1.109
356.31	1.151
356.52	1.168
356.73	1.195
356.93	1.216
357.14	1.211
357.35	1.233
357.55	1.241
357.76	1.195
357.97	1.133
358.17	1.104
358.38	1.144
358.59	1.127
358.79	1.105
359.00	1.092
359.21	1.049
359.41	1.025
359.62	0.998
359.83	0.985
360.03	0.998
360.24	1.062
360.44	1.101
360.65	1.077
360.86	1.058
361.06	1.073
361.27	1.071
361.48	1.078
361.68	1.140
361.89	1.187
362.10	1.177
362.30	1.188
362.51	1.170
362.72	1.165
362.92	1.182
363.13	1.179
363.33	1.171
363.54	1.191
363.75	1.190
363.95	1.149
364.16	1.136
364.37	1.186
364.57	1.162
364.78	1.140
364.98	1.105
365.19	1.076
365.40	1.094
365.60	1.078
365.81	1.078
366.02	1.105
366.22	1.105
366.43	1.099
366.63	1.055
366.84	1.056
367.05	1.044
367.25	0.999
367.46	0.998
367.66	1.011
367.87	1.069
368.08	1.041
368.28	1.018
368.49	1.040
368.69	1.007
368.90	1.027
369.11	1.041
369.31	1.077
369.52	1.128
369.72	1.135
369.93	1.120
370.14	1.107
370.34	1.104
370.55	1.081
370.75	1.063
370.96	1.086
371.17	1.100
371.37	1.104
371.58	1.090
371.78	1.071
371.99	1.088
372.20	1.100
372.40	1.096
372.61	1.103
372.81	1.149
373.02	1.139
373.23	1.128
373.43	1.105
373.64	1.092
373.84	1.089
374.05	1.134
374.25	1.139
374.46	1.081
374.67	1.051
374.87	1.077
375.08	1.038
375.28	1.022
375.49	1.019
375.69	1.018
375.90	1.000
376.11	1.007
376.31	0.984
376.52	0.977
376.72	0.992
376.93	0.985
377.13	0.970
377.34	1.003
377.55	1.043
377.75	1.046
377.96	1.020
378.16	1.046
378.37	1.065
378.57	1.089
378.78	1.080
378.98	1.100
379.19	1.125
379.40	1.103
379.60	1.063
379.81	1.043
380.01	1.018
380.22	1.033
380.42	1.046
380.63	1.012
380.83	0.966
381.04	0.940
381.24	0.930
381.45	0.922
381.66	0.926
381.86	0.949
382.07	0.949
382.27	1.006
382.48	0.993
382.68	0.974
382.89	0.994
383.09	1.013
383.30	1.041
383.50	1.038
383.71	1.003
383.91	1.016
384.12	1.006
384.32	1.011
384.53	0.988
384.73	1.006
384.94	0.996
385.15	0.997
385.35	0.991
385.56	0.969
385.76	0.964
385.97	1.007
386.17	1.009
386.38	1.022
386.58	1.005
386.79	1.018
386.99	1.013
387.20	1.032
387.40	1.005
387.61	1.025
387.81	1.032
388.02	1.030
388.22	1.005
388.43	0.985
388.63	0.976
388.84	1.005
389.04	1.005
389.25	1.023
389.45	1.014
389.66	1.050
389.86	1.040
390.07	1.058
390.27	1.049
390.48	1.062
390.68	1.067
390.89	1.086
391.09	1.088
391.30	1.089
391.50	1.086
391.71	1.090
391.91	1.075
392.12	1.100
392.32	1.087
392.53	1.131
392.73	1.133
392.94	1.143
393.14	1.142
393.35	1.133
393.55	1.116
393.75	1.109
393.96	1.096
394.16	1.079
394.37	1.046
394.57	1.056
394.78	1.039
394.98	1.009
395.19	0.984
395.39	0.973
395.60	0.958
395.80	0.958
396.01	0.936
396.21	0.962
396.42	0.979
396.62	0.988
396.83	0.983
397.03	0.983
397.23	1.001
397.44	1.031
397.64	1.031
397.85	1.047
398.05	1.061
398.26	1.086
398.46	1.082
398.67	1.076
398.87	1.062
399.08	1.043
399.28	1.037
399.48	1.030
399.69	1.021
399.89	1.021
400.10	1.017
400.30	1.007
400.51	0.995
400.71	1.000
400.92	1.002
401.12	1.042
401.32	1.067
401.53	1.048
401.73	1.056
401.94	1.069
402.14	1.065
402.35	1.083
402.55	1.075
402.75	1.076
402.96	1.050
403.16	1.062
403.37	1.036
403.57	1.029
403.78	1.059
403.98	1.065
404.18	1.061
404.39	1.044
404.59	1.024
404.80	1.019
405.00	1.026
405.21	1.057
405.41	1.037
405.61	1.037
405.82	1.046
406.02	1.050
406.23	1.051
406.43	1.064
406.63	1.087
406.84	1.106
407.04	1.120
407.25	1.116
407.45	1.102
407.65	1.102
407.86	1.097
408.06	1.084
408.27	1.065
408.47	1.073
408.67	1.045
408.88	1.035
409.08	1.019
409.29	1.007
409.49	1.005
409.69	0.991
409.90	1.016
410.10	1.013
410.31	1.005
410.51	1.012
410.71	0.993
410.92	0.973
411.12	0.971
411.33	0.970
411.53	0.971
411.73	0.959
411.94	0.988
412.14	0.957
412.34	0.969
412.55	0.984
412.75	0.974
412.96	0.987
413.16	1.027
413.36	1.029
413.57	1.020
413.77	1.014
413.97	1.045
414.18	1.031
414.38	1.048
414.59	1.061
414.79	1.052
414.99	1.035
415.20	1.025
415.40	1.021
415.60	1.023
415.81	1.020
416.01	1.030
416.21	1.009
416.42	1.011
416.62	1.019
416.83	1.005
417.03	1.010
417.23	1.020
417.44	1.019
417.64	1.002
417.84	0.998
418.05	1.024
418.25	1.026
418.45	1.032
418.66	1.030
418.86	1.016
419.06	1.029
419.27	1.028
419.47	1.028
419.67	1.036
419.88	1.043
420.08	1.046
420.28	1.025
420.49	1.028
420.69	1.023
420.89	1.010
421.10	1.022
421.30	1.015
421.50	1.018
421.71	1.021
421.91	1.021
422.11	1.013
422.32	1.020
422.52	1.021
422.72	1.026
422.93	1.033
423.13	1.051
423.33	1.042
423.54	1.033
423.74	1.024
423.94	1.025
424.15	1.021
424.35	1.034
424.55	1.021
424.76	1.028
424.96	1.019
425.16	1.009
425.36	1.006
425.57	1.001
425.77	1.004
425.97	1.005
426.18	1.016
426.38	1.017
426.58	1.010
426.79	1.034
426.99	1.015
427.19	1.019
427.39	1.044
427.60	1.029
427.80	1.037
428.00	1.044
428.21	1.070
428.41	1.066
428.61	1.060
428.82	1.065
429.02	1.057
429.22	1.086
429.42	1.080
429.63	1.064
429.83	1.067
430.03	1.065
430.24	1.049
430.44	1.046
430.64	1.053
430.84	1.064
431.05	1.056
431.25	1.059
431.45	1.037
431.65	1.026
431.86	1.024
432.06	1.032
432.26	1.026
432.47	1.042
432.67	1.029
432.87	1.012
433.07	1.009
433.28	1.017
433.48	1.008
433.68	1.015
433.88	1.035
434.09	1.049
434.29	1.050
434.49	1.061
434.69	1.052
434.90	1.064
435.10	1.059
435.30	1.069
435.51	1.083
435.71	1.091
435.91	1.099
436.11	1.086
436.32	1.060
436.52	1.064
436.72	1.074
436.92	1.077
437.13	1.070
437.33	1.082
437.53	1.077
437.73	1.058
437.93	1.060
438.14	1.055
438.34	1.052
438.54	1.059
438.74	1.052
438.95	1.045
439.15	1.048
439.35	1.056
439.55	1.052
439.76	1.058
439.96	1.064
440.16	1.062
440.36	1.068
440.56	1.066
440.77	1.059
440.97	1.057
441.17	1.051
441.37	1.051
441.58	1.042
441.78	1.062
441.98	1.058
442.18	1.066
442.38	1.064
442.59	1.065
442.79	1.067
442.99	1.084
443.19	1.090
443.40	1.098
443.60	1.101
443.80	1.104
444.00	1.073
444.20	1.065
444.41	1.041
444.61	1.048
444.81	1.054
445.01	1.075
445.21	1.068
445.42	1.066
445.62	1.063
445.82	1.051
446.02	1.053
446.22	1.055
446.43	1.062
446.63	1.064
446.83	1.054
447.03	1.048
447.23	1.032
447.44	1.034
447.64	1.030
447.84	1.032
448.04	1.033
448.24	1.033
448.44	1.039
448.65	1.025
448.85	1.032
449.05	1.049
449.25	1.043
449.45	1.066
449.65	1.077
449.86	1.097
450.06	1.105
450.26	1.119
450.46	1.123
450.66	1.118
450.87	1.135
451.07	1.143
451.27	1.132
451.47	1.134
451.67	1.122
451.87	1.121
452.08	1.104
452.28	1.093
452.48	1.093
452.68	1.090
452.88	1.089
453.08	1.090
453.28	1.085
453.49	1.095
453.69	1.103
453.89	1.100
454.09	1.097
454.29	1.105
454.49	1.111
454.70	1.105
454.90	1.095
455.10	1.101
455.30	1.086
455.50	1.096
455.70	1.095
455.90	1.090
456.11	1.092
456.31	1.094
456.51	1.083
456.71	1.079
456.91	1.093
457.11	1.106
457.31	1.107
457.51	1.122
457.72	1.114
457.92	1.110
458.12	1.111
458.32	1.106
458.52	1.112
458.72	1.115
458.92	1.107
459.12	1.101
459.33	1.091
459.53	1.099
459.73	1.112
459.93	1.109
460.13	1.114
460.33	1.120
460.53	1.122
460.73	1.104
460.93	1.114
461.14	1.127
461.34	1.132
461.54	1.145
461.74	1.145
461.94	1.136
462.14	1.144
462.34	1.139
462.54	1.146
462.74	1.138
462.95	1.149
463.15	1.145
463.35	1.140
463.55	1.136
463.75	1.134
463.95	1.129
464.15	1.130
464.35	1.134
464.55	1.136
464.75	1.129
464.95	1.145
465.16	1.144
465.36	1.131
465.56	1.129
465.76	1.134
465.96	1.136
466.16	1.149
466.36	1.140
466.56	1.124
466.76	1.112
466.96	1.113
467.16	1.110
467.36	1.114
467.57	1.117
467.77	1.122
467.97	1.125
468.17	1.122
468.37	1.104
468.57	1.119
468.77	1.131
468.97	1.144
469.17	1.140
469.37	1.139
469.57	1.149
469.77	1.160
469.97	1.160
470.17	1.159
470.37	1.159
470.57	1.173
470.78	1.154
470.98	1.168
471.18	1.165
471.38	1.166
471.58	1.175
471.78	1.172
471.98	1.169
472.18	1.171
472.38	1.166
472.58	1.181
472.78	1.183
472.98	1.189
473.18	1.180
473.38	1.181
473.58	1.194
473.78	1.191
473.98	1.196
474.18	1.211
474.38	1.213
474.58	1.218
474.78	1.218
474.98	1.217
475.18	1.236
475.38	1.227
475.58	1.223
475.79	1.221
475.99	1.212
476.19	1.211
476.39	1.195
476.59	1.187
476.79	1.184
476.99	1.174
477.19	1.179
477.39	1.158
477.59	1.168
477.79	1.184
477.99	1.178
478.19	1.180
478.39	1.186
478.59	1.186
478.79	1.198
478.99	1.205
479.19	1.216
479.39	1.210
479.59	1.221
479.79	1.219
479.99	1.219
480.19	1.217
480.39	1.214
480.59	1.209
480.79	1.209
480.99	1.205
481.19	1.206
481.39	1.197
481.59	1.204
481.79	1.211
481.99	1.218
482.19	1.220
482.39	1.232
482.59	1.246
482.79	1.247
482.99	1.244
483.19	1.260
483.39	1.276
483.59	1.296
483.79	1.296
483.99	1.289
484.19	1.284
484.39	1.284
484.58	1.285
484.78	1.285
484.98	1.289
485.18	1.294
485.38	1.293
485.58	1.283
485.78	1.265
485.98	1.267
486.18	1.272
486.38	1.280
486.58	1.287
486.78	1.283
486.98	1.283
487.18	1.287
487.38	1.292
487.58	1.288
