OOIBase32 Version 2.0.6.5 Data File
++++++++++++++++++++++++++++++++++++
Date: 03-24-2011, 10:55:37
User: Valued Ocean Optics Customer
Spectrometer Serial Number: USB4C01507
Spectrometer Channel: Master
Integration Time (msec): 46
Spectra Averaged: 30
Boxcar Smoothing: 5
Correct for Electrical Dark: Enabled
Time Normalized: Disabled
Dual-beam Reference: Disabled
Reference Channel: Master
Temperature: Not acquired
Spectrometer Type: S4000
ADC Type: USB4000
Number of Pixels in File: 3648
Graph Title: 
>>>>>Begin Spectral Data<<<<<
179.17	1140.199
179.39	3236.842
179.60	-169.691
179.82	-299.658
180.03	336.932
180.24	814.607
180.46	38.524
180.67	-300.455
180.89	123.433
181.10	-194.056
181.31	121.967
181.53	3.711
181.74	17.950
181.96	192.357
182.17	44.853
182.39	2.182
182.60	33.686
182.81	182.832
183.03	212.864
183.24	-271.335
183.46	17.649
183.67	11.921
183.88	1.109
184.10	9.615
184.31	2.484
184.53	11.484
184.74	4.400
184.96	6.568
185.17	-2.510
185.38	-3.219
185.60	2.824
185.81	5.759
186.03	5.478
186.24	11.086
186.45	10.993
186.67	8.044
186.88	6.322
187.10	10.062
187.31	7.016
187.52	6.254
187.74	4.040
187.95	-2.297
188.17	-15.766
188.38	-12.874
188.59	-14.530
188.81	-17.744
189.02	-14.440
189.24	-10.731
189.45	-10.845
189.66	-8.841
189.88	-18.039
190.09	-20.879
190.30	-19.941
190.52	-7.023
190.73	-6.617
190.95	-4.923
191.16	-3.217
191.37	-4.751
191.59	-18.977
191.80	-13.837
192.02	-15.355
192.23	-3.149
192.44	-1.381
192.66	3.177
192.87	-8.004
193.08	-17.810
193.30	-15.392
193.51	-6.575
193.73	1.611
193.94	16.085
194.15	11.615
194.37	20.986
194.58	17.238
194.79	14.415
195.01	13.339
195.22	14.133
195.44	20.026
195.65	16.855
195.86	15.639
196.08	15.120
196.29	9.445
196.50	11.312
196.72	8.616
196.93	10.684
197.14	10.836
197.36	12.317
197.57	10.496
197.79	12.834
198.00	10.094
198.21	7.441
198.43	7.094
198.64	11.275
198.85	12.151
199.07	11.542
199.28	10.792
199.49	10.120
199.71	7.814
199.92	11.332
200.13	4.119
200.35	10.124
200.56	0.961
200.78	-4.170
200.99	-8.119
201.20	-7.197
201.42	-9.747
201.63	-12.212
201.84	-9.511
202.06	-6.981
202.27	-12.064
202.48	-3.062
202.70	-10.767
202.91	-3.824
203.12	-3.381
203.34	-4.483
203.55	-4.598
203.76	-4.879
203.98	3.651
204.19	6.534
204.40	7.515
204.62	12.080
204.83	3.425
205.04	6.421
205.26	5.873
205.47	7.333
205.68	7.736
205.90	6.064
206.11	8.053
206.32	4.705
206.54	0.994
206.75	0.635
206.96	2.387
207.18	12.550
207.39	20.019
207.60	24.998
207.82	26.539
208.03	29.420
208.24	29.058
208.45	29.895
208.67	25.425
208.88	26.287
209.09	20.622
209.31	15.307
209.52	6.842
209.73	0.022
209.95	0.547
210.16	-0.846
210.37	-4.817
210.59	-3.688
210.80	-5.009
211.01	-1.910
211.23	0.461
211.44	1.338
211.65	5.875
211.86	10.698
212.08	10.952
212.29	6.287
212.50	3.577
212.72	1.388
212.93	-0.888
213.14	0.993
213.36	1.113
213.57	0.020
213.78	1.076
213.99	1.550
214.21	-0.093
214.42	2.723
214.63	2.521
214.85	1.601
215.06	5.906
215.27	9.269
215.49	5.535
215.70	6.181
215.91	5.669
216.12	4.722
216.34	5.166
216.55	7.281
216.76	3.554
216.98	3.632
217.19	6.268
217.40	7.294
217.61	6.564
217.83	8.632
218.04	6.222
218.25	4.462
218.47	5.516
218.68	5.211
218.89	3.028
219.10	4.357
219.32	3.752
219.53	4.236
219.74	3.563
219.95	1.471
220.17	0.551
220.38	1.799
220.59	0.773
220.81	1.501
221.02	1.304
221.23	2.871
221.44	3.115
221.66	4.214
221.87	2.991
222.08	2.569
222.29	4.349
222.51	5.525
222.72	5.286
222.93	6.522
223.14	6.163
223.36	5.409
223.57	4.981
223.78	5.754
223.99	5.064
224.21	5.976
224.42	5.293
224.63	4.354
224.84	3.396
225.06	3.704
225.27	3.660
225.48	3.446
225.69	3.846
225.91	4.114
226.12	3.353
226.33	4.303
226.54	3.875
226.76	4.136
226.97	4.032
227.18	4.197
227.39	4.049
227.61	4.112
227.82	4.120
228.03	4.142
228.24	3.931
228.46	4.037
228.67	4.034
228.88	4.069
229.09	3.960
229.31	4.080
229.52	4.064
229.73	4.224
229.94	4.059
230.16	4.256
230.37	4.157
230.58	4.409
230.79	4.273
231.00	4.242
231.22	4.477
231.43	4.831
231.64	4.676
231.85	4.663
232.07	4.500
232.28	5.023
232.49	4.600
232.70	4.369
232.91	4.293
233.13	4.519
233.34	4.304
233.55	4.451
233.76	4.452
233.98	4.590
234.19	4.584
234.40	4.566
234.61	4.510
234.82	4.569
235.04	4.548
235.25	4.855
235.46	4.866
235.67	4.850
235.88	4.817
236.10	4.834
236.31	4.727
236.52	4.701
236.73	5.067
236.94	5.167
237.16	4.679
237.37	5.286
237.58	4.975
237.79	4.829
238.01	4.535
238.22	4.291
238.43	4.179
238.64	4.320
238.85	4.173
239.06	3.936
239.28	3.470
239.49	3.865
239.70	3.488
239.91	3.501
240.12	3.522
240.34	3.701
240.55	3.714
240.76	3.810
240.97	3.764
241.18	3.832
241.40	3.719
241.61	3.824
241.82	3.804
242.03	4.004
242.24	3.885
242.45	3.867
242.67	3.873
242.88	3.862
243.09	3.754
243.30	3.762
243.51	3.790
243.73	3.841
243.94	3.712
244.15	3.652
244.36	3.413
244.57	3.736
244.78	3.645
245.00	3.405
245.21	3.358
245.42	3.353
245.63	3.307
245.84	3.280
246.05	3.272
246.27	3.336
246.48	3.308
246.69	3.311
246.90	3.296
247.11	3.261
247.32	3.354
247.54	3.372
247.75	3.318
247.96	3.299
248.17	3.355
248.38	3.400
248.59	3.311
248.81	3.327
249.02	3.264
249.23	3.173
249.44	3.093
249.65	3.056
249.86	2.796
250.07	2.985
250.29	2.938
250.50	2.822
250.71	2.865
250.92	2.903
251.13	2.937
251.34	3.052
251.55	3.002
251.77	3.147
251.98	3.070
252.19	3.112
252.40	2.990
252.61	3.009
252.82	2.847
253.03	2.758
253.25	2.764
253.46	2.731
253.67	2.623
253.88	2.684
254.09	2.714
254.30	2.692
254.51	2.934
254.73	3.064
254.94	3.099
255.15	3.410
255.36	3.254
255.57	3.157
255.78	3.069
255.99	3.029
256.20	2.917
256.42	2.874
256.63	2.862
256.84	2.746
257.05	2.670
257.26	2.765
257.47	2.608
257.68	2.784
257.89	2.864
258.10	2.961
258.32	2.871
258.53	2.890
258.74	2.839
258.95	2.793
259.16	2.790
259.37	2.803
259.58	2.708
259.79	2.753
260.00	2.690
260.22	2.695
260.43	2.694
260.64	2.715
260.85	2.731
261.06	2.721
261.27	2.710
261.48	2.791
261.69	2.768
261.90	2.898
262.12	2.800
262.33	2.885
262.54	2.818
262.75	2.722
262.96	2.706
263.17	2.669
263.38	2.698
263.59	2.681
263.80	2.503
264.01	2.558
264.22	2.457
264.44	2.506
264.65	2.380
264.86	2.428
265.07	2.285
265.28	2.435
265.49	2.464
265.70	2.465
265.91	2.401
266.12	2.507
266.33	2.434
266.54	2.558
266.75	2.551
266.97	2.612
267.18	2.616
267.39	2.665
267.60	2.614
267.81	2.586
268.02	2.588
268.23	2.818
268.44	2.742
268.65	2.824
268.86	2.808
269.07	2.851
269.28	2.769
269.49	2.838
269.70	2.774
269.92	2.637
270.13	2.622
270.34	2.659
270.55	2.502
270.76	2.466
270.97	2.411
271.18	2.441
271.39	2.354
271.60	2.433
271.81	2.421
272.02	2.465
272.23	2.495
272.44	2.528
272.65	2.479
272.86	2.546
273.07	2.614
273.28	2.609
273.49	2.545
273.71	2.525
273.92	2.526
274.13	2.386
274.34	2.422
274.55	2.467
274.76	2.365
274.97	2.389
275.18	2.315
275.39	2.301
275.60	2.343
275.81	2.397
276.02	2.364
276.23	2.376
276.44	2.461
276.65	2.424
276.86	2.458
277.07	2.400
277.28	2.453
277.49	2.532
277.70	2.507
277.91	2.448
278.12	2.424
278.33	2.442
278.54	2.426
278.75	2.333
278.96	2.311
279.17	2.290
279.39	2.338
279.60	2.371
279.81	2.268
280.02	2.185
280.23	2.204
280.44	2.204
280.65	2.310
280.86	2.393
281.07	2.487
281.28	2.595
281.49	2.465
281.70	2.522
281.91	2.433
282.12	2.494
282.33	2.529
282.54	2.538
282.75	2.532
282.96	2.559
283.17	2.473
283.38	2.399
283.59	2.258
283.80	2.315
284.01	2.284
284.22	2.298
284.43	2.263
284.64	2.321
284.85	2.359
285.06	2.373
285.27	2.331
285.48	2.325
285.69	2.340
285.90	2.489
286.11	2.538
286.32	2.565
286.53	2.500
286.74	2.550
286.95	2.480
287.16	2.484
287.37	2.433
287.58	2.421
287.79	2.408
288.00	2.462
288.21	2.260
288.42	2.150
288.63	2.161
288.84	2.208
289.05	2.248
289.26	2.314
289.47	2.273
289.68	2.240
289.89	2.261
290.10	2.244
290.31	2.160
290.51	2.219
290.72	2.314
290.93	2.353
291.14	2.340
291.35	2.232
291.56	2.184
291.77	2.165
291.98	2.165
292.19	2.140
292.40	2.099
292.61	2.099
292.82	2.145
293.03	2.139
293.24	2.053
293.45	2.114
293.66	2.104
293.87	2.126
294.08	2.084
294.29	2.183
294.50	2.158
294.71	2.238
294.92	2.339
295.13	2.297
295.34	2.204
295.55	2.227
295.76	2.135
295.96	2.130
296.17	2.109
296.38	2.213
296.59	2.170
296.80	2.170
297.01	2.165
297.22	2.172
297.43	2.157
297.64	2.209
297.85	2.186
298.06	2.193
298.27	2.255
298.48	2.250
298.69	2.186
298.90	2.204
299.11	2.228
299.32	2.242
299.53	2.208
299.73	2.240
299.94	2.284
300.15	2.275
300.36	2.358
300.57	2.354
300.78	2.356
300.99	2.333
301.20	2.256
301.41	2.261
301.62	2.227
301.83	2.234
302.04	2.203
302.25	2.151
302.45	2.193
302.66	2.152
302.87	2.127
303.08	2.089
303.29	2.069
303.50	2.193
303.71	2.247
303.92	2.224
304.13	2.143
304.34	2.163
304.55	2.131
304.76	2.173
304.96	2.105
305.17	2.076
305.38	2.122
305.59	2.178
305.80	2.070
306.01	1.985
306.22	1.986
306.43	2.076
306.64	2.005
306.85	2.043
307.06	1.949
307.26	1.973
307.47	1.920
307.68	2.000
307.89	1.976
308.10	2.019
308.31	2.018
308.52	2.048
308.73	2.021
308.94	2.046
309.14	2.054
309.35	2.116
309.56	2.176
309.77	2.213
309.98	2.185
310.19	2.206
310.40	2.187
310.61	2.149
310.82	2.116
311.02	2.128
311.23	2.153
311.44	2.101
311.65	2.026
311.86	1.973
312.07	1.986
312.28	1.930
312.49	1.847
312.69	1.847
312.90	1.862
313.11	1.859
313.32	1.825
313.53	1.800
313.74	1.817
313.95	1.867
314.16	1.903
314.36	1.909
314.57	1.977
314.78	2.032
314.99	2.077
315.20	2.151
315.41	2.173
315.62	2.133
315.82	2.133
316.03	2.107
316.24	2.103
316.45	2.123
316.66	2.126
316.87	2.118
317.08	2.114
317.28	2.127
317.49	2.047
317.70	2.046
317.91	2.070
318.12	2.103
318.33	2.128
318.54	2.120
318.74	2.062
318.95	2.047
319.16	2.045
319.37	2.063
319.58	2.013
319.79	2.003
319.99	1.983
320.20	1.986
320.41	1.961
320.62	2.007
320.83	1.973
321.04	2.019
321.24	1.981
321.45	2.006
321.66	1.966
321.87	1.956
322.08	2.003
322.29	2.034
322.49	2.049
322.70	2.053
322.91	2.025
323.12	2.076
323.33	2.063
323.54	2.052
323.74	1.985
323.95	2.000
324.16	2.010
324.37	1.944
324.58	1.933
324.79	1.910
324.99	1.899
325.20	1.950
325.41	1.926
325.62	1.932
325.83	1.936
326.03	1.866
326.24	1.844
326.45	1.828
326.66	1.868
326.87	1.845
327.07	1.821
327.28	1.799
327.49	1.719
327.70	1.703
327.91	1.682
328.11	1.730
328.32	1.852
328.53	1.907
328.74	1.918
328.95	1.938
329.15	1.945
329.36	2.030
329.57	2.026
329.78	2.076
329.99	2.054
330.19	2.088
330.40	2.029
330.61	2.011
330.82	1.952
331.03	1.923
331.23	1.903
331.44	1.940
331.65	1.850
331.86	1.922
332.07	1.863
332.27	1.881
332.48	1.839
332.69	1.851
332.90	1.822
333.10	1.892
333.31	1.900
333.52	1.866
333.73	1.862
333.94	1.931
334.14	1.861
334.35	1.888
334.56	1.942
334.77	1.929
334.97	1.912
335.18	1.887
335.39	1.839
335.60	1.867
335.80	1.860
336.01	1.829
336.22	1.716
336.43	1.721
336.64	1.726
336.84	1.640
337.05	1.628
337.26	1.642
337.47	1.654
337.67	1.666
337.88	1.604
338.09	1.629
338.30	1.663
338.50	1.766
338.71	1.804
338.92	1.823
339.13	1.865
339.33	1.912
339.54	1.891
339.75	1.888
339.96	1.843
340.16	1.864
340.37	1.905
340.58	1.863
340.79	1.846
340.99	1.835
341.20	1.762
341.41	1.742
341.62	1.713
341.82	1.740
342.03	1.699
342.24	1.706
342.44	1.710
342.65	1.692
342.86	1.681
343.07	1.656
343.27	1.684
343.48	1.717
343.69	1.711
343.90	1.759
344.10	1.700
344.31	1.739
344.52	1.775
344.72	1.790
344.93	1.752
345.14	1.766
345.35	1.738
345.55	1.707
345.76	1.706
345.97	1.749
346.18	1.678
346.38	1.730
346.59	1.708
346.80	1.715
347.00	1.695
347.21	1.687
347.42	1.724
347.62	1.739
347.83	1.700
348.04	1.692
348.25	1.653
348.45	1.706
348.66	1.704
348.87	1.754
349.07	1.699
349.28	1.707
349.49	1.725
349.70	1.694
349.90	1.718
350.11	1.712
350.32	1.687
350.52	1.693
350.73	1.665
350.94	1.670
351.14	1.657
351.35	1.689
351.56	1.668
351.76	1.664
351.97	1.686
352.18	1.688
352.39	1.710
352.59	1.772
352.80	1.759
353.01	1.798
353.21	1.760
353.42	1.748
353.63	1.706
353.83	1.698
354.04	1.719
354.25	1.692
354.45	1.681
354.66	1.680
354.87	1.633
355.07	1.643
355.28	1.610
355.49	1.660
355.69	1.684
355.90	1.712
356.11	1.755
356.31	1.768
356.52	1.780
356.73	1.801
356.93	1.798
357.14	1.807
357.35	1.801
357.55	1.813
357.76	1.759
357.97	1.689
358.17	1.687
358.38	1.688
358.59	1.647
358.79	1.650
359.00	1.636
359.21	1.658
359.41	1.668
359.62	1.679
359.83	1.655
360.03	1.670
360.24	1.711
360.44	1.708
360.65	1.667
360.86	1.694
361.06	1.650
361.27	1.630
361.48	1.592
361.68	1.619
361.89	1.639
362.10	1.642
362.30	1.646
362.51	1.647
362.72	1.666
362.92	1.681
363.13	1.642
363.33	1.647
363.54	1.676
363.75	1.728
363.95	1.682
364.16	1.677
364.37	1.696
364.57	1.715
364.78	1.706
364.98	1.696
365.19	1.700
365.40	1.743
365.60	1.751
365.81	1.736
366.02	1.726
366.22	1.726
366.43	1.706
366.63	1.669
366.84	1.635
367.05	1.621
367.25	1.586
367.46	1.549
367.66	1.535
367.87	1.559
368.08	1.549
368.28	1.547
368.49	1.550
368.69	1.531
368.90	1.565
369.11	1.593
369.31	1.594
369.52	1.643
369.72	1.662
369.93	1.656
370.14	1.649
370.34	1.647
370.55	1.613
370.75	1.629
370.96	1.643
371.17	1.665
371.37	1.657
371.58	1.682
371.78	1.664
371.99	1.678
372.20	1.694
372.40	1.689
372.61	1.693
372.81	1.734
373.02	1.702
373.23	1.687
373.43	1.673
373.64	1.666
373.84	1.661
374.05	1.673
374.25	1.673
374.46	1.623
374.67	1.645
374.87	1.679
375.08	1.632
375.28	1.615
375.49	1.635
375.69	1.627
375.90	1.604
376.11	1.602
376.31	1.586
376.52	1.578
376.72	1.615
376.93	1.597
377.13	1.556
377.34	1.601
377.55	1.646
377.75	1.661
377.96	1.635
378.16	1.650
378.37	1.692
378.57	1.702
378.78	1.712
378.98	1.703
379.19	1.721
379.40	1.697
379.60	1.663
379.81	1.664
380.01	1.621
380.22	1.637
380.42	1.656
380.63	1.626
380.83	1.607
381.04	1.579
381.24	1.558
381.45	1.542
381.66	1.567
381.86	1.576
382.07	1.563
382.27	1.576
382.48	1.582
382.68	1.571
382.89	1.563
383.09	1.572
383.30	1.572
383.50	1.595
383.71	1.564
383.91	1.590
384.12	1.595
384.32	1.605
384.53	1.612
384.73	1.604
384.94	1.615
385.15	1.614
385.35	1.625
385.56	1.637
385.76	1.611
385.97	1.633
386.17	1.614
386.38	1.616
386.58	1.605
386.79	1.634
386.99	1.624
387.20	1.615
387.40	1.603
387.61	1.604
387.81	1.602
388.02	1.622
388.22	1.622
388.43	1.618
388.63	1.594
388.84	1.599
389.04	1.588
389.25	1.605
389.45	1.599
389.66	1.615
389.86	1.610
390.07	1.616
390.27	1.635
390.48	1.615
390.68	1.628
390.89	1.663
391.09	1.675
391.30	1.660
391.50	1.674
391.71	1.685
391.91	1.667
392.12	1.683
392.32	1.691
392.53	1.690
392.73	1.725
392.94	1.730
393.14	1.723
393.35	1.733
393.55	1.738
393.75	1.713
393.96	1.706
394.16	1.707
394.37	1.690
394.57	1.701
394.78	1.702
394.98	1.684
395.19	1.663
395.39	1.668
395.60	1.656
395.80	1.661
396.01	1.658
396.21	1.675
396.42	1.679
396.62	1.702
396.83	1.680
397.03	1.702
397.23	1.717
397.44	1.736
397.64	1.732
397.85	1.740
398.05	1.735
398.26	1.758
398.46	1.719
398.67	1.737
398.87	1.708
399.08	1.693
399.28	1.659
399.48	1.641
399.69	1.604
399.89	1.621
400.10	1.615
400.30	1.611
400.51	1.598
400.71	1.646
400.92	1.638
401.12	1.661
401.32	1.669
401.53	1.670
401.73	1.681
401.94	1.713
402.14	1.698
402.35	1.706
402.55	1.718
402.75	1.728
402.96	1.705
403.16	1.718
403.37	1.689
403.57	1.713
403.78	1.716
403.98	1.711
404.18	1.708
404.39	1.695
404.59	1.697
404.80	1.698
405.00	1.691
405.21	1.716
405.41	1.710
405.61	1.731
405.82	1.719
406.02	1.727
406.23	1.725
406.43	1.735
406.63	1.749
406.84	1.748
407.04	1.740
407.25	1.762
407.45	1.753
407.65	1.746
407.86	1.730
408.06	1.704
408.27	1.688
408.47	1.703
408.67	1.679
408.88	1.654
409.08	1.643
409.29	1.644
409.49	1.630
409.69	1.614
409.90	1.629
410.10	1.644
410.31	1.658
410.51	1.662
410.71	1.650
410.92	1.653
411.12	1.647
411.33	1.651
411.53	1.643
411.73	1.631
411.94	1.643
412.14	1.631
412.34	1.640
412.55	1.662
412.75	1.659
412.96	1.676
413.16	1.682
413.36	1.705
413.57	1.688
413.77	1.698
413.97	1.725
414.18	1.737
414.38	1.729
414.59	1.728
414.79	1.710
414.99	1.714
415.20	1.704
415.40	1.716
415.60	1.708
415.81	1.719
416.01	1.716
416.21	1.689
416.42	1.691
416.62	1.700
416.83	1.683
417.03	1.684
417.23	1.667
417.44	1.665
417.64	1.649
417.84	1.666
418.05	1.674
418.25	1.671
418.45	1.689
418.66	1.670
418.86	1.653
419.06	1.663
419.27	1.666
419.47	1.675
419.67	1.675
419.88	1.681
420.08	1.665
420.28	1.644
420.49	1.647
420.69	1.626
420.89	1.621
421.10	1.632
421.30	1.626
421.50	1.629
421.71	1.625
421.91	1.634
422.11	1.628
422.32	1.633
422.52	1.640
422.72	1.637
422.93	1.660
423.13	1.683
423.33	1.684
423.54	1.687
423.74	1.678
423.94	1.685
424.15	1.672
424.35	1.686
424.55	1.685
424.76	1.695
424.96	1.699
425.16	1.689
425.36	1.669
425.57	1.659
425.77	1.658
425.97	1.680
426.18	1.697
426.38	1.702
426.58	1.686
426.79	1.693
426.99	1.676
427.19	1.670
427.39	1.686
427.60	1.706
427.80	1.733
428.00	1.751
428.21	1.733
428.41	1.716
428.61	1.729
428.82	1.736
429.02	1.733
429.22	1.768
429.42	1.771
429.63	1.751
429.83	1.749
430.03	1.738
430.24	1.723
430.44	1.736
430.64	1.737
430.84	1.739
431.05	1.738
431.25	1.756
431.45	1.749
431.65	1.741
431.86	1.743
432.06	1.745
432.26	1.746
432.47	1.754
432.67	1.745
432.87	1.743
433.07	1.735
433.28	1.747
433.48	1.724
433.68	1.710
433.88	1.727
434.09	1.738
434.29	1.732
434.49	1.746
434.69	1.731
434.90	1.735
435.10	1.728
435.30	1.734
435.51	1.741
435.71	1.750
435.91	1.768
436.11	1.757
436.32	1.739
436.52	1.756
436.72	1.748
436.92	1.748
437.13	1.744
437.33	1.752
437.53	1.730
437.73	1.712
437.93	1.722
438.14	1.718
438.34	1.709
438.54	1.725
438.74	1.718
438.95	1.710
439.15	1.719
439.35	1.730
439.55	1.727
439.76	1.746
439.96	1.752
440.16	1.755
440.36	1.753
440.56	1.764
440.77	1.763
440.97	1.763
441.17	1.768
441.37	1.772
441.58	1.759
441.78	1.780
441.98	1.785
442.18	1.794
442.38	1.792
442.59	1.802
442.79	1.796
442.99	1.804
443.19	1.788
443.40	1.794
443.60	1.792
443.80	1.810
444.00	1.797
444.20	1.792
444.41	1.772
444.61	1.777
444.81	1.785
445.01	1.788
445.21	1.776
445.42	1.788
445.62	1.789
445.82	1.786
446.02	1.786
446.22	1.783
446.43	1.778
446.63	1.789
446.83	1.794
447.03	1.783
447.23	1.787
447.44	1.802
447.64	1.800
447.84	1.801
448.04	1.803
448.24	1.804
448.44	1.802
448.65	1.812
448.85	1.810
449.05	1.811
449.25	1.821
449.45	1.832
449.65	1.832
449.86	1.853
450.06	1.843
450.26	1.855
450.46	1.860
450.66	1.874
450.87	1.874
451.07	1.884
451.27	1.870
451.47	1.883
451.67	1.883
451.87	1.885
452.08	1.871
452.28	1.870
452.48	1.865
452.68	1.867
452.88	1.864
453.08	1.867
453.28	1.858
453.49	1.869
453.69	1.865
453.89	1.864
454.09	1.863
454.29	1.866
454.49	1.884
454.70	1.894
454.90	1.881
455.10	1.881
455.30	1.874
455.50	1.888
455.70	1.892
455.90	1.891
456.11	1.878
456.31	1.881
456.51	1.874
456.71	1.866
456.91	1.865
457.11	1.877
457.31	1.872
457.51	1.883
457.72	1.879
457.92	1.871
458.12	1.865
458.32	1.876
458.52	1.876
458.72	1.882
458.92	1.875
459.12	1.869
459.33	1.867
459.53	1.880
459.73	1.888
459.93	1.885
460.13	1.889
460.33	1.886
460.53	1.884
460.73	1.878
460.93	1.881
461.14	1.897
461.34	1.901
461.54	1.906
461.74	1.909
461.94	1.918
462.14	1.923
462.34	1.930
462.54	1.941
462.74	1.943
462.95	1.945
463.15	1.946
463.35	1.939
463.55	1.942
463.75	1.947
463.95	1.946
464.15	1.941
464.35	1.944
464.55	1.941
464.75	1.941
464.95	1.956
465.16	1.970
465.36	1.967
465.56	1.968
465.76	1.979
465.96	1.982
466.16	1.978
466.36	1.979
466.56	1.976
466.76	1.972
466.96	1.983
467.16	1.981
467.36	1.977
467.57	1.978
467.77	1.983
467.97	1.977
468.17	1.981
468.37	1.981
468.57	1.978
468.77	1.986
468.97	1.990
469.17	1.990
469.37	1.991
469.57	1.996
469.77	2.001
469.97	1.994
470.17	1.997
470.37	1.990
470.57	1.994
470.78	1.990
470.98	1.992
471.18	1.997
471.38	1.998
471.58	2.000
471.78	2.008
471.98	2.015
472.18	2.023
472.38	2.025
472.58	2.047
472.78	2.058
472.98	2.070
473.18	2.072
473.38	2.076
473.58	2.079
473.78	2.079
473.98	2.082
474.18	2.100
474.38	2.105
474.58	2.117
474.78	2.112
474.98	2.105
475.18	2.114
475.38	2.113
475.58	2.111
475.79	2.110
475.99	2.105
476.19	2.096
476.39	2.076
476.59	2.069
476.79	2.068
476.99	2.064
477.19	2.068
477.39	2.058
477.59	2.063
477.79	2.065
477.99	2.067
478.19	2.065
478.39	2.074
478.59	2.081
478.79	2.096
478.99	2.099
479.19	2.109
479.39	2.115
479.59	2.126
479.79	2.134
479.99	2.147
480.19	2.144
480.39	2.148
480.59	2.149
480.79	2.150
480.99	2.143
481.19	2.143
481.39	2.141
481.59	2.140
481.79	2.138
481.99	2.137
482.19	2.131
482.39	2.143
482.59	2.149
482.79	2.139
482.99	2.132
483.19	2.152
483.39	2.181
483.59	2.206
483.79	2.205
483.99	2.195
484.19	2.183
484.39	2.183
484.58	2.178
484.78	2.178
484.98	2.182
485.18	2.185
485.38	2.179
485.58	2.159
485.78	2.127
485.98	2.124
486.18	2.132
486.38	2.149
486.58	2.159
486.78	2.164
486.98	2.173
