OOIBase32 Version 2.0.6.5 Data File
++++++++++++++++++++++++++++++++++++
Date: 03-24-2011, 10:55:29
User: Valued Ocean Optics Customer
Spectrometer Serial Number: USB4C01507
Spectrometer Channel: Master
Integration Time (msec): 46
Spectra Averaged: 30
Boxcar Smoothing: 5
Correct for Electrical Dark: Enabled
Time Normalized: Disabled
Dual-beam Reference: Disabled
Reference Channel: Master
Temperature: Not acquired
Spectrometer Type: S4000
ADC Type: USB4000
Number of Pixels in File: 3648
Graph Title: 
>>>>>Begin Spectral Data<<<<<
179.17	1105.296
179.39	3077.783
179.60	-86.970
179.82	31.050
180.03	317.264
180.24	-656.708
180.46	-31.134
180.67	-41.284
180.89	-93.428
181.10	-179.519
181.31	151.436
181.53	-100.191
181.74	68.705
181.96	65.005
182.17	63.542
182.39	71.521
182.60	76.574
182.81	164.848
183.03	130.149
183.24	-216.003
183.46	30.411
183.67	32.980
183.88	31.190
184.10	46.171
184.31	36.518
184.53	34.976
184.74	30.625
184.96	33.247
185.17	29.273
185.38	27.190
185.60	28.309
185.81	28.274
186.03	22.859
186.24	19.762
186.45	13.253
186.67	13.184
186.88	13.523
187.10	12.149
187.31	3.467
187.52	7.232
187.74	6.019
187.95	5.764
188.17	-2.836
188.38	7.394
188.59	8.745
188.81	7.174
189.02	14.280
189.24	18.415
189.45	24.305
189.66	20.430
189.88	7.113
190.09	7.977
190.30	9.238
190.52	18.241
190.73	6.914
190.95	4.201
191.16	2.639
191.37	-1.774
191.59	-9.055
191.80	-15.789
192.02	-14.062
192.23	-5.174
192.44	-13.716
192.66	-18.215
192.87	-40.673
193.08	-37.403
193.30	-38.289
193.51	-29.655
193.73	-21.574
193.94	-6.103
194.15	-1.248
194.37	5.482
194.58	8.581
194.79	12.100
195.01	10.651
195.22	19.302
195.44	21.039
195.65	21.581
195.86	14.795
196.08	1.186
196.29	-3.726
196.50	0.764
196.72	5.061
196.93	6.425
197.14	4.254
197.36	12.067
197.57	7.881
197.79	16.741
198.00	15.275
198.21	18.459
198.43	24.642
198.64	25.561
198.85	18.536
199.07	17.366
199.28	14.993
199.49	13.214
199.71	9.868
199.92	12.864
200.13	-1.378
200.35	5.672
200.56	-1.479
200.78	-4.092
200.99	-7.522
201.20	0.104
201.42	-5.971
201.63	-14.734
201.84	-11.706
202.06	-4.909
202.27	-3.399
202.48	4.113
202.70	-7.343
202.91	-2.874
203.12	-3.483
203.34	-5.324
203.55	-5.590
203.76	-0.779
203.98	6.837
204.19	6.335
204.40	4.808
204.62	5.241
204.83	-0.976
205.04	3.519
205.26	1.788
205.47	7.139
205.68	8.879
205.90	6.367
206.11	6.686
206.32	2.560
206.54	3.167
206.75	-0.514
206.96	1.004
207.18	9.406
207.39	12.468
207.60	18.539
207.82	16.207
208.03	18.808
208.24	19.153
208.45	18.927
208.67	19.386
208.88	18.728
209.09	18.910
209.31	16.681
209.52	10.009
209.73	8.736
209.95	7.033
210.16	5.700
210.37	4.528
210.59	3.976
210.80	-0.582
211.01	1.794
211.23	4.824
211.44	1.377
211.65	0.588
211.86	4.580
212.08	3.398
212.29	2.717
212.50	2.157
212.72	-1.114
212.93	-5.885
213.14	-1.694
213.36	-4.421
213.57	-5.198
213.78	0.617
213.99	3.312
214.21	6.718
214.42	9.073
214.63	7.155
214.85	5.859
215.06	7.216
215.27	13.173
215.49	10.926
215.70	10.431
215.91	8.808
216.12	4.911
216.34	5.428
216.55	3.762
216.76	3.183
216.98	2.022
217.19	1.294
217.40	4.899
217.61	4.927
217.83	8.243
218.04	9.530
218.25	8.104
218.47	9.011
218.68	9.397
218.89	5.827
219.10	7.279
219.32	8.215
219.53	8.706
219.74	8.313
219.95	6.396
220.17	3.926
220.38	4.833
220.59	5.195
220.81	5.205
221.02	5.399
221.23	7.305
221.44	5.768
221.66	6.754
221.87	7.544
222.08	6.535
222.29	7.415
222.51	7.945
222.72	7.223
222.93	8.029
223.14	8.777
223.36	7.765
223.57	6.588
223.78	6.194
223.99	5.571
224.21	5.649
224.42	5.382
224.63	3.692
224.84	3.180
225.06	2.824
225.27	2.713
225.48	2.363
225.69	2.349
225.91	2.931
226.12	2.402
226.33	2.884
226.54	2.421
226.76	2.281
226.97	2.614
227.18	2.412
227.39	2.339
227.61	2.433
227.82	2.332
228.03	2.362
228.24	2.277
228.46	2.415
228.67	2.327
228.88	2.325
229.09	2.307
229.31	2.268
229.52	2.412
229.73	2.684
229.94	2.479
230.16	2.694
230.37	2.689
230.58	2.657
230.79	2.549
231.00	2.483
231.22	2.652
231.43	3.126
231.64	3.372
231.85	3.562
232.07	3.127
232.28	3.416
232.49	3.308
232.70	3.043
232.91	3.312
233.13	3.537
233.34	3.405
233.55	3.627
233.76	3.174
233.98	3.105
234.19	2.808
234.40	2.825
234.61	2.789
234.82	2.724
235.04	2.874
235.25	2.831
235.46	2.851
235.67	3.051
235.88	2.712
236.10	2.909
236.31	2.825
236.52	3.124
236.73	3.596
236.94	3.826
237.16	3.247
237.37	3.361
237.58	3.065
237.79	2.833
238.01	2.479
238.22	2.655
238.43	2.525
238.64	2.826
238.85	2.427
239.06	2.314
239.28	2.123
239.49	2.513
239.70	2.313
239.91	2.492
240.12	2.573
240.34	2.636
240.55	2.580
240.76	2.616
240.97	2.481
241.18	2.647
241.40	2.506
241.61	2.465
241.82	2.428
242.03	2.552
242.24	2.440
242.45	2.321
242.67	2.260
242.88	2.293
243.09	2.179
243.30	2.007
243.51	2.096
243.73	2.117
243.94	2.041
244.15	1.997
244.36	1.840
244.57	2.019
244.78	2.087
245.00	2.136
245.21	2.077
245.42	2.115
245.63	2.237
245.84	2.159
246.05	2.137
246.27	2.171
246.48	2.146
246.69	2.120
246.90	2.091
247.11	2.058
247.32	2.071
247.54	2.056
247.75	2.057
247.96	2.011
248.17	2.018
248.38	2.041
248.59	2.015
248.81	1.994
249.02	2.062
249.23	2.075
249.44	2.201
249.65	2.263
249.86	2.145
250.07	2.195
250.29	2.047
250.50	1.853
250.71	1.870
250.92	1.819
251.13	1.872
251.34	1.926
251.55	1.828
251.77	1.765
251.98	1.708
252.19	1.815
252.40	1.816
252.61	1.858
252.82	1.816
253.03	1.748
253.25	1.869
253.46	1.720
253.67	1.675
253.88	1.736
254.09	1.925
254.30	1.850
254.51	1.884
254.73	1.797
254.94	1.943
255.15	2.080
255.36	2.041
255.57	1.878
255.78	1.911
255.99	1.804
256.20	2.030
256.42	1.875
256.63	1.752
256.84	1.652
257.05	1.711
257.26	1.746
257.47	1.779
257.68	1.891
257.89	1.823
258.10	1.993
258.32	1.935
258.53	1.818
258.74	1.827
258.95	1.890
259.16	1.864
259.37	1.823
259.58	1.728
259.79	1.729
260.00	1.680
260.22	1.668
260.43	1.593
260.64	1.564
260.85	1.585
261.06	1.605
261.27	1.519
261.48	1.515
261.69	1.405
261.90	1.492
262.12	1.374
262.33	1.459
262.54	1.566
262.75	1.582
262.96	1.584
263.17	1.664
263.38	1.638
263.59	1.729
263.80	1.805
264.01	2.006
264.22	1.861
264.44	1.998
264.65	1.772
264.86	1.751
265.07	1.630
265.28	1.667
265.49	1.508
265.70	1.467
265.91	1.485
266.12	1.431
266.33	1.436
266.54	1.553
266.75	1.582
266.97	1.689
267.18	1.751
267.39	1.844
267.60	1.814
267.81	1.854
268.02	1.792
268.23	1.832
268.44	1.825
268.65	1.716
268.86	1.796
269.07	1.862
269.28	1.720
269.49	1.711
269.70	1.646
269.92	1.759
270.13	1.720
270.34	1.857
270.55	1.852
270.76	1.896
270.97	1.964
271.18	1.902
271.39	1.747
271.60	1.826
271.81	1.852
272.02	1.861
272.23	1.804
272.44	1.862
272.65	1.851
272.86	1.842
273.07	1.784
273.28	1.881
273.49	1.864
273.71	1.857
273.92	1.891
274.13	1.724
274.34	1.676
274.55	1.698
274.76	1.641
274.97	1.592
275.18	1.455
275.39	1.502
275.60	1.505
275.81	1.606
276.02	1.559
276.23	1.508
276.44	1.597
276.65	1.746
276.86	1.684
277.07	1.709
277.28	1.665
277.49	1.848
277.70	1.765
277.91	1.684
278.12	1.527
278.33	1.508
278.54	1.579
278.75	1.504
278.96	1.360
279.17	1.358
279.39	1.321
279.60	1.322
279.81	1.192
280.02	1.182
280.23	1.167
280.44	1.174
280.65	1.241
280.86	1.187
281.07	1.272
281.28	1.396
281.49	1.336
281.70	1.432
281.91	1.402
282.12	1.483
282.33	1.613
282.54	1.560
282.75	1.599
282.96	1.688
283.17	1.731
283.38	1.765
283.59	1.678
283.80	1.665
284.01	1.556
284.22	1.670
284.43	1.633
284.64	1.525
284.85	1.552
285.06	1.536
285.27	1.504
285.48	1.455
285.69	1.431
285.90	1.550
286.11	1.622
286.32	1.560
286.53	1.466
286.74	1.497
286.95	1.533
287.16	1.570
287.37	1.565
287.58	1.531
287.79	1.585
288.00	1.553
288.21	1.394
288.42	1.324
288.63	1.495
288.84	1.499
289.05	1.451
289.26	1.509
289.47	1.455
289.68	1.445
289.89	1.410
290.10	1.291
290.31	1.155
290.51	1.159
290.72	1.213
290.93	1.184
291.14	1.192
291.35	1.179
291.56	1.155
291.77	1.113
291.98	1.091
292.19	1.147
292.40	1.169
292.61	1.293
292.82	1.330
293.03	1.368
293.24	1.351
293.45	1.403
293.66	1.428
293.87	1.421
294.08	1.386
294.29	1.510
294.50	1.422
294.71	1.473
294.92	1.562
295.13	1.578
295.34	1.439
295.55	1.449
295.76	1.329
295.96	1.370
296.17	1.374
296.38	1.470
296.59	1.387
296.80	1.430
297.01	1.425
297.22	1.385
297.43	1.362
297.64	1.455
297.85	1.433
298.06	1.496
298.27	1.506
298.48	1.465
298.69	1.378
298.90	1.436
299.11	1.448
299.32	1.439
299.53	1.417
299.73	1.442
299.94	1.493
300.15	1.453
300.36	1.458
300.57	1.396
300.78	1.405
300.99	1.491
301.20	1.427
301.41	1.438
301.62	1.489
301.83	1.510
302.04	1.519
302.25	1.403
302.45	1.426
302.66	1.374
302.87	1.388
303.08	1.421
303.29	1.376
303.50	1.417
303.71	1.421
303.92	1.420
304.13	1.369
304.34	1.363
304.55	1.388
304.76	1.355
304.96	1.363
305.17	1.334
305.38	1.266
305.59	1.291
305.80	1.249
306.01	1.224
306.22	1.149
306.43	1.183
306.64	1.115
306.85	1.083
307.06	1.093
307.26	1.084
307.47	1.045
307.68	1.129
307.89	1.091
308.10	1.091
308.31	1.138
308.52	1.253
308.73	1.294
308.94	1.324
309.14	1.370
309.35	1.459
309.56	1.481
309.77	1.496
309.98	1.453
310.19	1.469
310.40	1.492
310.61	1.485
310.82	1.431
311.02	1.417
311.23	1.406
311.44	1.366
311.65	1.291
311.86	1.269
312.07	1.263
312.28	1.229
312.49	1.218
312.69	1.195
312.90	1.155
313.11	1.153
313.32	1.124
313.53	1.121
313.74	1.046
313.95	1.037
314.16	1.043
314.36	1.057
314.57	1.125
314.78	1.128
314.99	1.153
315.20	1.157
315.41	1.164
315.62	1.138
315.82	1.180
316.03	1.241
316.24	1.291
316.45	1.347
316.66	1.341
316.87	1.357
317.08	1.349
317.28	1.371
317.49	1.337
317.70	1.312
317.91	1.295
318.12	1.263
318.33	1.272
318.54	1.240
318.74	1.200
318.95	1.227
319.16	1.207
319.37	1.205
319.58	1.182
319.79	1.226
319.99	1.211
320.20	1.292
320.41	1.339
320.62	1.373
320.83	1.380
321.04	1.388
321.24	1.345
321.45	1.404
321.66	1.339
321.87	1.371
322.08	1.374
322.29	1.396
322.49	1.374
322.70	1.358
322.91	1.379
323.12	1.420
323.33	1.420
323.54	1.434
323.74	1.357
323.95	1.382
324.16	1.358
324.37	1.341
324.58	1.353
324.79	1.298
324.99	1.239
325.20	1.242
325.41	1.232
325.62	1.228
325.83	1.258
326.03	1.220
326.24	1.249
326.45	1.262
326.66	1.217
326.87	1.176
327.07	1.200
327.28	1.204
327.49	1.153
327.70	1.121
327.91	1.110
328.11	1.084
328.32	1.099
328.53	1.173
328.74	1.138
328.95	1.156
329.15	1.169
329.36	1.217
329.57	1.255
329.78	1.285
329.99	1.263
330.19	1.232
330.40	1.219
330.61	1.267
330.82	1.138
331.03	1.117
331.23	1.130
331.44	1.147
331.65	1.081
331.86	1.093
332.07	1.059
332.27	1.090
332.48	1.094
332.69	1.133
332.90	1.127
333.10	1.191
333.31	1.198
333.52	1.201
333.73	1.222
333.94	1.234
334.14	1.208
334.35	1.225
334.56	1.219
334.77	1.212
334.97	1.172
335.18	1.090
335.39	1.074
335.60	1.095
335.80	1.056
336.01	1.028
336.22	0.978
336.43	0.969
336.64	0.971
336.84	0.954
337.05	0.952
337.26	0.963
337.47	1.002
337.67	1.005
337.88	0.955
338.09	0.989
338.30	1.018
338.50	1.129
338.71	1.154
338.92	1.191
339.13	1.221
339.33	1.250
339.54	1.191
339.75	1.207
339.96	1.214
340.16	1.220
340.37	1.252
340.58	1.226
340.79	1.191
340.99	1.188
341.20	1.121
341.41	1.087
341.62	1.075
341.82	1.125
342.03	1.044
342.24	1.035
342.44	1.083
342.65	1.057
342.86	1.030
343.07	0.995
343.27	1.034
343.48	1.057
343.69	1.031
343.90	1.065
344.10	1.022
344.31	1.070
344.52	1.089
344.72	1.048
344.93	1.025
345.14	1.038
345.35	1.047
345.55	1.042
345.76	1.011
345.97	1.067
346.18	1.041
346.38	1.091
346.59	1.105
346.80	1.118
347.00	1.116
347.21	1.150
347.42	1.198
347.62	1.194
347.83	1.137
348.04	1.122
348.25	1.070
348.45	1.078
348.66	1.048
348.87	1.100
349.07	1.064
349.28	1.095
349.49	1.046
349.70	1.055
349.90	1.034
350.11	1.034
350.32	1.027
350.52	1.080
350.73	1.077
350.94	1.136
351.14	1.090
351.35	1.130
351.56	1.138
351.76	1.141
351.97	1.067
352.18	1.117
352.39	1.124
352.59	1.201
352.80	1.176
353.01	1.205
353.21	1.155
353.42	1.152
353.63	1.098
353.83	1.069
354.04	1.085
354.25	1.106
354.45	1.059
354.66	1.088
354.87	1.035
355.07	1.059
355.28	1.014
355.49	1.049
355.69	1.056
355.90	1.103
356.11	1.139
356.31	1.153
356.52	1.174
356.73	1.205
356.93	1.163
357.14	1.186
357.35	1.191
357.55	1.225
357.76	1.180
357.97	1.159
358.17	1.171
358.38	1.152
358.59	1.134
358.79	1.137
359.00	1.129
359.21	1.153
359.41	1.131
359.62	1.111
359.83	1.098
360.03	1.108
360.24	1.157
360.44	1.115
360.65	1.101
360.86	1.145
361.06	1.127
361.27	1.139
361.48	1.116
361.68	1.149
361.89	1.142
362.10	1.130
362.30	1.161
362.51	1.117
362.72	1.145
362.92	1.156
363.13	1.095
363.33	1.083
363.54	1.084
363.75	1.114
363.95	1.090
364.16	1.081
364.37	1.108
364.57	1.088
364.78	1.104
364.98	1.087
365.19	1.056
365.40	1.106
365.60	1.116
365.81	1.149
366.02	1.144
366.22	1.142
366.43	1.160
366.63	1.150
366.84	1.126
367.05	1.123
367.25	1.088
367.46	1.093
367.66	1.096
367.87	1.136
368.08	1.094
368.28	1.099
368.49	1.099
368.69	1.068
368.90	1.050
369.11	1.080
369.31	1.085
369.52	1.152
369.72	1.176
369.93	1.144
370.14	1.120
370.34	1.111
370.55	1.087
370.75	1.096
370.96	1.087
371.17	1.111
371.37	1.078
371.58	1.078
371.78	1.045
371.99	1.046
372.20	1.050
372.40	1.031
372.61	1.012
372.81	1.025
373.02	1.027
373.23	1.061
373.43	1.038
373.64	1.049
373.84	1.040
374.05	1.060
374.25	1.033
374.46	1.016
374.67	1.057
374.87	1.109
375.08	1.098
375.28	1.072
375.49	1.044
375.69	1.048
375.90	1.052
376.11	1.040
376.31	1.006
376.52	1.045
376.72	1.040
376.93	1.002
377.13	0.983
377.34	0.988
377.55	1.019
377.75	1.049
377.96	1.026
378.16	1.018
378.37	1.049
378.57	1.075
378.78	1.059
378.98	1.089
379.19	1.112
379.40	1.079
379.60	1.063
379.81	1.078
380.01	1.037
380.22	1.048
380.42	1.054
380.63	1.044
380.83	1.004
381.04	0.997
381.24	0.969
381.45	0.939
381.66	0.963
381.86	0.975
382.07	0.940
382.27	0.978
382.48	0.987
382.68	0.994
382.89	0.981
383.09	1.029
383.30	1.034
383.50	1.054
383.71	1.039
383.91	1.035
384.12	1.059
384.32	1.067
384.53	1.041
384.73	1.043
384.94	1.055
385.15	1.063
385.35	1.050
385.56	1.055
385.76	1.028
385.97	1.064
386.17	1.086
386.38	1.076
386.58	1.067
386.79	1.106
386.99	1.099
387.20	1.069
387.40	1.057
387.61	1.050
387.81	1.036
388.02	1.064
388.22	1.044
388.43	1.020
388.63	1.008
388.84	1.032
389.04	1.020
389.25	1.020
389.45	1.013
389.66	1.033
389.86	1.040
390.07	1.068
390.27	1.062
390.48	1.077
390.68	1.087
390.89	1.103
391.09	1.108
391.30	1.113
391.50	1.136
391.71	1.159
391.91	1.155
392.12	1.178
392.32	1.157
392.53	1.161
392.73	1.174
392.94	1.160
393.14	1.154
393.35	1.159
393.55	1.141
393.75	1.133
393.96	1.116
394.16	1.116
394.37	1.096
394.57	1.110
394.78	1.111
394.98	1.084
395.19	1.075
395.39	1.064
395.60	1.024
395.80	1.036
396.01	1.024
396.21	1.035
396.42	1.028
396.62	1.028
396.83	0.998
397.03	1.017
397.23	1.026
397.44	1.060
397.64	1.072
397.85	1.089
398.05	1.104
398.26	1.120
398.46	1.118
398.67	1.136
398.87	1.118
399.08	1.123
399.28	1.108
399.48	1.106
399.69	1.095
399.89	1.102
400.10	1.104
400.30	1.082
400.51	1.064
400.71	1.078
400.92	1.061
401.12	1.087
401.32	1.081
401.53	1.081
401.73	1.072
401.94	1.083
402.14	1.082
402.35	1.086
402.55	1.086
402.75	1.097
402.96	1.091
403.16	1.099
403.37	1.091
403.57	1.113
403.78	1.107
403.98	1.116
404.18	1.106
404.39	1.087
404.59	1.077
404.80	1.080
405.00	1.070
405.21	1.079
405.41	1.068
405.61	1.069
405.82	1.067
406.02	1.078
406.23	1.077
406.43	1.092
406.63	1.108
406.84	1.128
407.04	1.136
407.25	1.155
407.45	1.158
407.65	1.166
407.86	1.155
408.06	1.152
408.27	1.148
408.47	1.172
408.67	1.154
408.88	1.146
409.08	1.131
409.29	1.122
409.49	1.119
409.69	1.100
409.90	1.107
410.10	1.104
410.31	1.095
410.51	1.098
410.71	1.064
410.92	1.055
411.12	1.050
411.33	1.058
411.53	1.068
411.73	1.049
411.94	1.075
412.14	1.074
412.34	1.105
412.55	1.140
412.75	1.135
412.96	1.150
413.16	1.167
413.36	1.181
413.57	1.167
413.77	1.144
413.97	1.180
414.18	1.166
414.38	1.163
414.59	1.157
414.79	1.120
414.99	1.120
415.20	1.119
415.40	1.122
415.60	1.114
415.81	1.130
416.01	1.138
416.21	1.123
416.42	1.140
416.62	1.154
416.83	1.138
417.03	1.148
417.23	1.144
417.44	1.142
417.64	1.126
417.84	1.141
418.05	1.139
418.25	1.141
418.45	1.135
418.66	1.129
418.86	1.109
419.06	1.130
419.27	1.130
419.47	1.137
419.67	1.142
419.88	1.151
420.08	1.134
420.28	1.133
420.49	1.141
420.69	1.141
420.89	1.135
421.10	1.148
421.30	1.136
421.50	1.138
421.71	1.133
421.91	1.136
422.11	1.138
422.32	1.162
422.52	1.146
422.72	1.151
422.93	1.162
423.13	1.173
423.33	1.182
423.54	1.184
423.74	1.184
423.94	1.187
424.15	1.181
424.35	1.190
424.55	1.183
424.76	1.201
424.96	1.194
425.16	1.191
425.36	1.184
425.57	1.176
425.77	1.172
425.97	1.185
426.18	1.189
426.38	1.188
426.58	1.166
426.79	1.158
426.99	1.146
427.19	1.155
427.39	1.155
427.60	1.151
427.80	1.155
428.00	1.159
428.21	1.139
428.41	1.139
428.61	1.146
428.82	1.153
429.02	1.150
429.22	1.177
429.42	1.173
429.63	1.173
429.83	1.183
430.03	1.187
430.24	1.198
430.44	1.216
430.64	1.216
430.84	1.204
431.05	1.205
431.25	1.215
431.45	1.199
431.65	1.186
431.86	1.192
432.06	1.199
432.26	1.202
432.47	1.203
432.67	1.197
432.87	1.196
433.07	1.214
433.28	1.225
433.48	1.222
433.68	1.230
433.88	1.248
434.09	1.246
434.29	1.240
434.49	1.238
434.69	1.230
434.90	1.230
435.10	1.221
435.30	1.219
435.51	1.218
435.71	1.207
435.91	1.210
436.11	1.193
436.32	1.182
436.52	1.181
436.72	1.181
436.92	1.179
437.13	1.185
437.33	1.201
437.53	1.191
437.73	1.180
437.93	1.188
438.14	1.184
438.34	1.184
438.54	1.200
438.74	1.209
438.95	1.207
439.15	1.219
439.35	1.220
439.55	1.219
439.76	1.239
439.96	1.257
440.16	1.265
440.36	1.262
440.56	1.267
440.77	1.248
440.97	1.230
441.17	1.216
441.37	1.204
441.58	1.203
441.78	1.220
441.98	1.206
442.18	1.200
442.38	1.189
442.59	1.197
442.79	1.191
442.99	1.228
443.19	1.236
443.40	1.251
443.60	1.264
443.80	1.258
444.00	1.243
444.20	1.245
444.41	1.231
444.61	1.250
444.81	1.259
445.01	1.267
445.21	1.245
445.42	1.261
445.62	1.263
445.82	1.259
446.02	1.267
446.22	1.261
446.43	1.262
446.63	1.266
446.83	1.256
447.03	1.247
447.23	1.243
447.44	1.251
447.64	1.241
447.84	1.236
448.04	1.236
448.24	1.227
448.44	1.229
448.65	1.222
448.85	1.223
449.05	1.234
449.25	1.232
449.45	1.241
449.65	1.246
449.86	1.259
450.06	1.267
450.26	1.279
450.46	1.284
450.66	1.289
450.87	1.294
451.07	1.309
451.27	1.289
451.47	1.287
451.67	1.293
451.87	1.290
452.08	1.279
452.28	1.279
452.48	1.275
452.68	1.279
452.88	1.274
453.08	1.274
453.28	1.267
453.49	1.285
453.69	1.306
453.89	1.298
454.09	1.294
454.29	1.310
454.49	1.314
454.70	1.306
454.90	1.292
455.10	1.308
455.30	1.304
455.50	1.311
455.70	1.304
455.90	1.297
456.11	1.296
456.31	1.289
456.51	1.279
456.71	1.286
456.91	1.298
457.11	1.322
457.31	1.303
457.51	1.319
457.72	1.316
457.92	1.317
458.12	1.305
458.32	1.319
458.52	1.331
458.72	1.348
458.92	1.331
459.12	1.331
459.33	1.319
459.53	1.332
459.73	1.343
459.93	1.345
460.13	1.352
460.33	1.363
460.53	1.356
460.73	1.353
460.93	1.340
461.14	1.355
461.34	1.361
461.54	1.374
461.74	1.376
461.94	1.360
462.14	1.359
462.34	1.357
462.54	1.353
462.74	1.347
462.95	1.346
463.15	1.357
463.35	1.341
463.55	1.340
463.75	1.333
463.95	1.332
464.15	1.337
464.35	1.346
464.55	1.336
464.75	1.337
464.95	1.356
465.16	1.365
465.36	1.358
465.56	1.372
465.76	1.379
465.96	1.393
466.16	1.403
466.36	1.397
466.56	1.390
466.76	1.396
466.96	1.397
467.16	1.389
467.36	1.376
467.57	1.375
467.77	1.373
467.97	1.371
468.17	1.361
468.37	1.346
468.57	1.360
468.77	1.365
468.97	1.367
469.17	1.367
469.37	1.365
469.57	1.376
469.77	1.384
469.97	1.382
470.17	1.384
470.37	1.391
470.57	1.396
470.78	1.386
470.98	1.396
471.18	1.393
471.38	1.396
471.58	1.408
471.78	1.420
471.98	1.424
472.18	1.436
472.38	1.437
472.58	1.441
472.78	1.458
472.98	1.465
473.18	1.468
473.38	1.471
473.58	1.480
473.78	1.478
473.98	1.475
474.18	1.484
474.38	1.481
474.58	1.485
474.78	1.488
474.98	1.478
475.18	1.481
475.38	1.469
475.58	1.486
475.79	1.476
475.99	1.476
476.19	1.476
476.39	1.463
476.59	1.465
476.79	1.463
476.99	1.458
477.19	1.463
477.39	1.459
477.59	1.471
477.79	1.461
477.99	1.462
478.19	1.457
478.39	1.459
478.59	1.468
478.79	1.470
478.99	1.477
479.19	1.491
479.39	1.501
479.59	1.518
479.79	1.506
479.99	1.519
480.19	1.527
480.39	1.541
480.59	1.542
480.79	1.552
480.99	1.551
481.19	1.553
481.39	1.545
481.59	1.545
481.79	1.543
481.99	1.559
482.19	1.565
482.39	1.578
482.59	1.587
482.79	1.597
482.99	1.603
483.19	1.624
483.39	1.656
483.59	1.677
483.79	1.682
483.99	1.677
484.19	1.670
484.39	1.670
484.58	1.671
484.78	1.671
484.98	1.672
485.18	1.671
485.38	1.668
485.58	1.644
485.78	1.621
485.98	1.612
486.18	1.614
486.38	1.626
486.58	1.629
486.78	1.630
486.98	1.637
487.18	1.651
