OOIBase32 Version 2.0.6.5 Data File
++++++++++++++++++++++++++++++++++++
Date: 03-24-2011, 10:55:21
User: Valued Ocean Optics Customer
Spectrometer Serial Number: USB4C01507
Spectrometer Channel: Master
Integration Time (msec): 46
Spectra Averaged: 30
Boxcar Smoothing: 5
Correct for Electrical Dark: Enabled
Time Normalized: Disabled
Dual-beam Reference: Disabled
Reference Channel: Master
Temperature: Not acquired
Spectrometer Type: S4000
ADC Type: USB4000
Number of Pixels in File: 3648
Graph Title: 
>>>>>Begin Spectral Data<<<<<
179.17	1252.057
179.39	2982.636
179.60	50.403
179.82	-134.053
180.03	443.614
180.24	78.149
180.46	71.757
180.67	-287.683
180.89	72.100
181.10	-173.419
181.31	254.821
181.53	-1.409
181.74	108.877
181.96	128.210
182.17	110.515
182.39	40.363
182.60	116.745
182.81	226.003
183.03	72.100
183.24	-25.604
183.46	11.004
183.67	10.896
183.88	1.414
184.10	15.904
184.31	17.064
184.53	9.680
184.74	-6.259
184.96	3.825
185.17	-3.691
185.38	-8.568
185.60	1.699
185.81	-1.483
186.03	-0.916
186.24	-0.971
186.45	-0.835
186.67	-4.790
186.88	3.227
187.10	8.671
187.31	7.191
187.52	6.045
187.74	11.019
187.95	7.791
188.17	6.263
188.38	6.011
188.59	3.013
188.81	-1.819
189.02	6.835
189.24	10.602
189.45	13.570
189.66	10.840
189.88	6.598
190.09	4.196
190.30	8.669
190.52	14.410
190.73	19.124
190.95	22.413
191.16	30.843
191.37	27.169
191.59	21.096
191.80	21.410
192.02	27.254
192.23	33.415
192.44	31.968
192.66	24.450
192.87	13.054
193.08	8.986
193.30	10.377
193.51	4.554
193.73	6.867
193.94	7.409
194.15	8.289
194.37	6.518
194.58	4.227
194.79	-1.347
195.01	0.809
195.22	4.161
195.44	4.543
195.65	-1.207
195.86	-0.751
196.08	-9.113
196.29	-6.900
196.50	-10.076
196.72	-2.221
196.93	0.542
197.14	2.235
197.36	1.773
197.57	1.539
197.79	5.642
198.00	9.899
198.21	10.833
198.43	17.629
198.64	16.410
198.85	19.822
199.07	18.491
199.28	14.913
199.49	14.332
199.71	14.505
199.92	20.270
200.13	18.954
200.35	21.789
200.56	10.729
200.78	8.655
200.99	7.184
201.20	7.447
201.42	0.323
201.63	-6.448
201.84	-4.527
202.06	-5.802
202.27	-6.608
202.48	-9.391
202.70	-17.062
202.91	-9.001
203.12	-12.962
203.34	-15.454
203.55	-15.746
203.76	-16.561
203.98	-6.317
204.19	-3.598
204.40	-2.646
204.62	-4.028
204.83	-7.127
205.04	-2.552
205.26	-2.521
205.47	-1.309
205.68	-0.022
205.90	-2.862
206.11	-2.324
206.32	-6.431
206.54	-7.409
206.75	-6.166
206.96	-7.350
207.18	-2.729
207.39	-1.129
207.60	3.699
207.82	3.479
208.03	6.406
208.24	10.567
208.45	12.396
208.67	10.892
208.88	9.481
209.09	5.339
209.31	3.462
209.52	-0.717
209.73	-0.541
209.95	0.418
210.16	2.953
210.37	-0.233
210.59	0.541
210.80	4.275
211.01	7.258
211.23	8.653
211.44	9.733
211.65	10.801
211.86	14.233
212.08	12.527
212.29	9.617
212.50	7.911
212.72	8.726
212.93	5.109
213.14	2.265
213.36	0.589
213.57	-0.682
213.78	1.156
213.99	3.948
214.21	7.230
214.42	7.508
214.63	7.982
214.85	6.620
215.06	7.859
215.27	10.368
215.49	9.522
215.70	9.349
215.91	9.728
216.12	8.413
216.34	8.728
216.55	4.299
216.76	4.092
216.98	0.761
217.19	3.794
217.40	5.403
217.61	7.778
217.83	9.956
218.04	10.055
218.25	9.956
218.47	11.702
218.68	10.089
218.89	11.483
219.10	11.664
219.32	10.842
219.53	12.300
219.74	12.116
219.95	8.517
220.17	7.212
220.38	6.654
220.59	4.991
220.81	4.004
221.02	5.379
221.23	4.223
221.44	3.778
221.66	5.708
221.87	4.498
222.08	4.656
222.29	6.247
222.51	5.846
222.72	6.366
222.93	6.897
223.14	7.640
223.36	6.810
223.57	6.761
223.78	7.437
223.99	6.903
224.21	7.245
224.42	5.966
224.63	4.744
224.84	4.209
225.06	4.946
225.27	5.186
225.48	4.476
225.69	4.916
225.91	5.251
226.12	4.629
226.33	5.267
226.54	4.596
226.76	4.819
226.97	5.024
227.18	5.112
227.39	4.778
227.61	4.938
227.82	4.939
228.03	4.814
228.24	4.764
228.46	4.780
228.67	4.737
228.88	4.701
229.09	4.596
229.31	4.575
229.52	4.584
229.73	4.624
229.94	4.518
230.16	4.634
230.37	4.730
230.58	4.684
230.79	4.555
231.00	4.534
231.22	4.855
231.43	5.083
231.64	5.343
231.85	5.236
232.07	5.191
232.28	4.992
232.49	4.714
232.70	4.526
232.91	4.667
233.13	5.062
233.34	5.015
233.55	5.196
233.76	4.979
233.98	4.670
234.19	4.557
234.40	4.575
234.61	4.696
234.82	4.615
235.04	4.370
235.25	4.505
235.46	4.348
235.67	4.140
235.88	4.112
236.10	4.409
236.31	4.230
236.52	4.327
236.73	4.774
236.94	4.787
237.16	4.907
237.37	5.385
237.58	5.246
237.79	5.297
238.01	5.120
238.22	4.996
238.43	4.960
238.64	5.400
238.85	5.255
239.06	4.872
239.28	4.603
239.49	4.730
239.70	4.723
239.91	4.479
240.12	4.548
240.34	4.484
240.55	4.553
240.76	4.500
240.97	4.443
241.18	4.487
241.40	4.435
241.61	4.516
241.82	4.469
242.03	4.399
242.24	4.368
242.45	4.245
242.67	4.372
242.88	4.211
243.09	4.093
243.30	3.926
243.51	4.053
243.73	4.056
243.94	3.975
244.15	3.911
244.36	4.019
244.57	4.264
244.78	4.420
245.00	4.234
245.21	4.239
245.42	4.197
245.63	4.180
245.84	4.053
246.05	4.064
246.27	4.081
246.48	4.038
246.69	3.928
246.90	3.927
247.11	3.837
247.32	3.819
247.54	3.868
247.75	3.866
247.96	3.875
248.17	3.925
248.38	3.904
248.59	3.887
248.81	3.906
249.02	4.071
249.23	3.820
249.44	3.844
249.65	3.934
249.86	3.511
250.07	3.631
250.29	3.613
250.50	3.323
250.71	3.158
250.92	3.086
251.13	3.147
251.34	3.211
251.55	3.403
251.77	3.466
251.98	3.554
252.19	3.709
252.40	3.586
252.61	3.486
252.82	3.491
253.03	3.653
253.25	3.706
253.46	3.647
253.67	3.560
253.88	3.376
254.09	3.441
254.30	3.167
254.51	3.148
254.73	3.032
254.94	3.233
255.15	3.469
255.36	3.348
255.57	3.250
255.78	3.446
255.99	3.339
256.20	3.489
256.42	3.420
256.63	3.489
256.84	3.503
257.05	3.549
257.26	3.425
257.47	3.292
257.68	3.323
257.89	3.323
258.10	3.361
258.32	3.393
258.53	3.328
258.74	3.263
258.95	3.258
259.16	3.249
259.37	3.280
259.58	3.256
259.79	3.313
260.00	3.293
260.22	3.326
260.43	3.272
260.64	3.251
260.85	3.283
261.06	3.336
261.27	3.377
261.48	3.400
261.69	3.240
261.90	3.278
262.12	3.049
262.33	3.054
262.54	2.990
262.75	2.953
262.96	2.806
263.17	2.837
263.38	2.777
263.59	2.806
263.80	2.824
264.01	2.983
264.22	2.901
264.44	3.092
264.65	2.980
264.86	3.043
265.07	3.005
265.28	2.976
265.49	2.925
265.70	3.011
265.91	2.880
266.12	2.863
266.33	2.807
266.54	2.855
266.75	2.840
266.97	2.962
267.18	2.964
267.39	2.981
267.60	3.054
267.81	3.039
268.02	2.963
268.23	3.072
268.44	3.037
268.65	3.124
268.86	3.174
269.07	3.202
269.28	3.114
269.49	3.086
269.70	3.141
269.92	3.105
270.13	3.103
270.34	3.123
270.55	3.047
270.76	3.064
270.97	3.107
271.18	3.178
271.39	3.071
271.60	3.098
271.81	3.089
272.02	3.028
272.23	3.142
272.44	3.213
272.65	3.242
272.86	3.244
273.07	3.239
273.28	3.226
273.49	3.062
273.71	3.171
273.92	3.200
274.13	3.120
274.34	3.080
274.55	3.042
274.76	2.802
274.97	2.770
275.18	2.641
275.39	2.663
275.60	2.705
275.81	2.830
276.02	2.655
276.23	2.642
276.44	2.684
276.65	2.703
276.86	2.626
277.07	2.807
277.28	2.821
277.49	2.961
277.70	2.880
277.91	2.837
278.12	2.673
278.33	2.737
278.54	2.766
278.75	2.693
278.96	2.620
279.17	2.545
279.39	2.454
279.60	2.469
279.81	2.393
280.02	2.342
280.23	2.398
280.44	2.473
280.65	2.609
280.86	2.513
281.07	2.584
281.28	2.734
281.49	2.794
281.70	2.921
281.91	2.883
282.12	2.881
282.33	3.063
282.54	2.930
282.75	3.002
282.96	3.030
283.17	3.132
283.38	3.128
283.59	3.030
283.80	2.917
284.01	2.840
284.22	2.871
284.43	2.953
284.64	2.829
284.85	2.832
285.06	2.788
285.27	2.740
285.48	2.695
285.69	2.708
285.90	2.804
286.11	2.952
286.32	2.954
286.53	2.915
286.74	2.930
286.95	2.991
287.16	3.012
287.37	2.944
287.58	2.898
287.79	2.848
288.00	2.786
288.21	2.592
288.42	2.522
288.63	2.580
288.84	2.623
289.05	2.606
289.26	2.538
289.47	2.562
289.68	2.574
289.89	2.590
290.10	2.590
290.31	2.530
290.51	2.613
290.72	2.619
290.93	2.552
291.14	2.530
291.35	2.396
291.56	2.399
291.77	2.319
291.98	2.344
292.19	2.344
292.40	2.337
292.61	2.414
292.82	2.400
293.03	2.385
293.24	2.382
293.45	2.442
293.66	2.544
293.87	2.691
294.08	2.688
294.29	2.784
294.50	2.679
294.71	2.708
294.92	2.744
295.13	2.736
295.34	2.697
295.55	2.717
295.76	2.596
295.96	2.543
296.17	2.469
296.38	2.548
296.59	2.499
296.80	2.512
297.01	2.533
297.22	2.551
297.43	2.559
297.64	2.549
297.85	2.521
298.06	2.492
298.27	2.507
298.48	2.456
298.69	2.365
298.90	2.339
299.11	2.393
299.32	2.408
299.53	2.430
299.73	2.408
299.94	2.532
300.15	2.520
300.36	2.578
300.57	2.607
300.78	2.620
300.99	2.663
301.20	2.645
301.41	2.640
301.62	2.668
301.83	2.631
302.04	2.594
302.25	2.496
302.45	2.487
302.66	2.457
302.87	2.446
303.08	2.490
303.29	2.519
303.50	2.592
303.71	2.600
303.92	2.511
304.13	2.475
304.34	2.493
304.55	2.498
304.76	2.556
304.96	2.566
305.17	2.530
305.38	2.516
305.59	2.486
305.80	2.414
306.01	2.401
306.22	2.362
306.43	2.348
306.64	2.353
306.85	2.338
307.06	2.316
307.26	2.325
307.47	2.287
307.68	2.330
307.89	2.344
308.10	2.331
308.31	2.289
308.52	2.350
308.73	2.363
308.94	2.387
309.14	2.408
309.35	2.439
309.56	2.483
309.77	2.488
309.98	2.494
310.19	2.470
310.40	2.439
310.61	2.444
310.82	2.410
311.02	2.408
311.23	2.369
311.44	2.351
311.65	2.290
311.86	2.223
312.07	2.250
312.28	2.159
312.49	2.115
312.69	2.140
312.90	2.111
313.11	2.117
313.32	2.100
313.53	2.123
313.74	2.060
313.95	2.033
314.16	2.075
314.36	2.058
314.57	2.077
314.78	2.090
314.99	2.117
315.20	2.198
315.41	2.231
315.62	2.202
315.82	2.198
316.03	2.244
316.24	2.320
316.45	2.336
316.66	2.350
316.87	2.392
317.08	2.409
317.28	2.408
317.49	2.397
317.70	2.359
317.91	2.367
318.12	2.357
318.33	2.359
318.54	2.272
318.74	2.266
318.95	2.253
319.16	2.293
319.37	2.331
319.58	2.317
319.79	2.184
319.99	2.186
320.20	2.185
320.41	2.211
320.62	2.218
320.83	2.270
321.04	2.242
321.24	2.241
321.45	2.237
321.66	2.179
321.87	2.222
322.08	2.285
322.29	2.267
322.49	2.298
322.70	2.273
322.91	2.297
323.12	2.310
323.33	2.346
323.54	2.309
323.74	2.275
323.95	2.267
324.16	2.287
324.37	2.294
324.58	2.345
324.79	2.332
324.99	2.290
325.20	2.298
325.41	2.332
325.62	2.332
325.83	2.337
326.03	2.269
326.24	2.303
326.45	2.243
326.66	2.233
326.87	2.221
327.07	2.171
327.28	2.215
327.49	2.180
327.70	2.108
327.91	2.070
328.11	2.075
328.32	2.126
328.53	2.155
328.74	2.164
328.95	2.191
329.15	2.150
329.36	2.215
329.57	2.154
329.78	2.160
329.99	2.176
330.19	2.166
330.40	2.162
330.61	2.130
330.82	2.094
331.03	2.053
331.23	2.032
331.44	2.060
331.65	2.048
331.86	2.142
332.07	2.126
332.27	2.135
332.48	2.121
332.69	2.181
332.90	2.201
333.10	2.223
333.31	2.260
333.52	2.254
333.73	2.229
333.94	2.198
334.14	2.150
334.35	2.165
334.56	2.153
334.77	2.147
334.97	2.081
335.18	2.046
335.39	2.024
335.60	2.017
335.80	1.995
336.01	2.027
336.22	1.987
336.43	2.004
336.64	2.019
336.84	2.017
337.05	2.011
337.26	2.018
337.47	2.046
337.67	2.051
337.88	1.996
338.09	1.993
338.30	2.005
338.50	2.091
338.71	2.091
338.92	2.075
339.13	2.129
339.33	2.148
339.54	2.126
339.75	2.128
339.96	2.140
340.16	2.164
340.37	2.167
340.58	2.118
340.79	2.125
340.99	2.109
341.20	2.057
341.41	1.993
341.62	2.001
341.82	2.018
342.03	1.993
342.24	1.943
342.44	1.967
342.65	1.989
342.86	1.981
343.07	1.946
343.27	1.955
343.48	1.980
343.69	1.986
343.90	2.012
344.10	1.991
344.31	1.979
344.52	2.028
344.72	2.008
344.93	1.993
345.14	2.030
345.35	2.010
345.55	2.013
345.76	2.011
345.97	2.012
346.18	1.984
346.38	2.007
346.59	2.024
346.80	2.006
347.00	1.992
347.21	2.006
347.42	2.002
347.62	2.016
347.83	1.993
348.04	1.979
348.25	1.954
348.45	1.952
348.66	1.948
348.87	1.937
349.07	1.922
349.28	1.944
349.49	1.928
349.70	1.929
349.90	1.919
350.11	1.940
350.32	1.939
350.52	1.928
350.73	1.926
350.94	1.935
351.14	1.946
351.35	1.969
351.56	1.979
351.76	1.991
351.97	1.951
352.18	1.948
352.39	1.929
352.59	1.965
352.80	1.983
353.01	1.997
353.21	1.959
353.42	1.941
353.63	1.899
353.83	1.891
354.04	1.896
354.25	1.921
354.45	1.915
354.66	1.921
354.87	1.891
355.07	1.917
355.28	1.933
355.49	1.954
355.69	1.959
355.90	1.955
356.11	1.966
356.31	1.982
356.52	1.988
356.73	2.016
356.93	2.002
357.14	2.012
357.35	2.039
357.55	2.058
357.76	2.016
357.97	2.002
358.17	2.040
358.38	2.035
358.59	2.016
358.79	2.000
359.00	1.963
359.21	1.971
359.41	1.941
359.62	1.897
359.83	1.852
360.03	1.891
360.24	1.949
360.44	1.964
360.65	1.944
360.86	1.957
361.06	1.962
361.27	1.962
361.48	1.944
361.68	1.990
361.89	2.000
362.10	2.012
362.30	2.005
362.51	1.955
362.72	1.947
362.92	1.960
363.13	1.916
363.33	1.900
363.54	1.913
363.75	1.928
363.95	1.892
364.16	1.901
364.37	1.914
364.57	1.934
364.78	1.954
364.98	1.915
365.19	1.906
365.40	1.927
365.60	1.910
365.81	1.930
366.02	1.930
366.22	1.927
366.43	1.907
366.63	1.900
366.84	1.844
367.05	1.851
367.25	1.856
367.46	1.813
367.66	1.818
367.87	1.876
368.08	1.849
368.28	1.852
368.49	1.875
368.69	1.835
368.90	1.825
369.11	1.871
369.31	1.856
369.52	1.889
369.72	1.927
369.93	1.914
370.14	1.892
370.34	1.879
370.55	1.883
370.75	1.879
370.96	1.903
371.17	1.919
371.37	1.893
371.58	1.886
371.78	1.877
371.99	1.875
372.20	1.882
372.40	1.845
372.61	1.857
372.81	1.857
373.02	1.867
373.23	1.852
373.43	1.827
373.64	1.836
373.84	1.842
374.05	1.849
374.25	1.873
374.46	1.847
374.67	1.870
374.87	1.908
375.08	1.878
375.28	1.868
375.49	1.914
375.69	1.933
375.90	1.918
376.11	1.930
376.31	1.901
376.52	1.875
376.72	1.898
376.93	1.910
377.13	1.868
377.34	1.891
377.55	1.911
377.75	1.877
377.96	1.830
378.16	1.854
378.37	1.868
378.57	1.892
378.78	1.905
378.98	1.898
379.19	1.910
379.40	1.886
379.60	1.850
379.81	1.820
380.01	1.817
380.22	1.827
380.42	1.815
380.63	1.768
380.83	1.739
381.04	1.716
381.24	1.717
381.45	1.687
381.66	1.725
381.86	1.758
382.07	1.745
382.27	1.766
382.48	1.752
382.68	1.764
382.89	1.796
383.09	1.809
383.30	1.831
383.50	1.823
383.71	1.806
383.91	1.797
384.12	1.798
384.32	1.825
384.53	1.806
384.73	1.819
384.94	1.825
385.15	1.805
385.35	1.796
385.56	1.793
385.76	1.776
385.97	1.808
386.17	1.810
386.38	1.814
386.58	1.795
386.79	1.826
386.99	1.843
387.20	1.832
387.40	1.852
387.61	1.875
387.81	1.870
388.02	1.894
388.22	1.866
388.43	1.860
388.63	1.849
388.84	1.870
389.04	1.863
389.25	1.869
389.45	1.862
389.66	1.865
389.86	1.849
390.07	1.837
390.27	1.834
390.48	1.849
390.68	1.855
390.89	1.875
391.09	1.866
391.30	1.854
391.50	1.849
391.71	1.855
391.91	1.831
392.12	1.860
392.32	1.881
392.53	1.893
392.73	1.880
392.94	1.882
393.14	1.869
393.35	1.883
393.55	1.882
393.75	1.871
393.96	1.862
394.16	1.873
394.37	1.839
394.57	1.843
394.78	1.859
394.98	1.878
395.19	1.854
395.39	1.851
395.60	1.838
395.80	1.853
396.01	1.841
396.21	1.860
396.42	1.849
396.62	1.851
396.83	1.828
397.03	1.816
397.23	1.810
397.44	1.836
397.64	1.845
397.85	1.854
398.05	1.850
398.26	1.850
398.46	1.836
398.67	1.851
398.87	1.871
399.08	1.881
399.28	1.867
399.48	1.877
399.69	1.874
399.89	1.873
400.10	1.868
400.30	1.859
400.51	1.880
400.71	1.879
400.92	1.879
401.12	1.867
401.32	1.854
401.53	1.844
401.73	1.833
401.94	1.851
402.14	1.847
402.35	1.871
402.55	1.871
402.75	1.866
402.96	1.869
403.16	1.869
403.37	1.863
403.57	1.888
403.78	1.909
403.98	1.905
404.18	1.886
404.39	1.877
404.59	1.855
404.80	1.866
405.00	1.855
405.21	1.872
405.41	1.866
405.61	1.869
405.82	1.871
406.02	1.872
406.23	1.887
406.43	1.900
406.63	1.908
406.84	1.919
407.04	1.918
407.25	1.936
407.45	1.939
407.65	1.942
407.86	1.927
408.06	1.891
408.27	1.877
408.47	1.870
408.67	1.855
408.88	1.856
409.08	1.820
409.29	1.825
409.49	1.819
409.69	1.796
409.90	1.813
410.10	1.839
410.31	1.859
410.51	1.871
410.71	1.877
410.92	1.860
411.12	1.849
411.33	1.858
411.53	1.848
411.73	1.842
411.94	1.874
412.14	1.848
412.34	1.837
412.55	1.827
412.75	1.811
412.96	1.798
413.16	1.812
413.36	1.823
413.57	1.829
413.77	1.819
413.97	1.858
414.18	1.858
414.38	1.871
414.59	1.897
414.79	1.904
414.99	1.900
415.20	1.896
415.40	1.904
415.60	1.904
415.81	1.908
416.01	1.917
416.21	1.889
416.42	1.884
416.62	1.893
416.83	1.870
417.03	1.861
417.23	1.853
417.44	1.855
417.64	1.848
417.84	1.841
418.05	1.847
418.25	1.850
418.45	1.843
418.66	1.839
418.86	1.814
419.06	1.828
419.27	1.836
419.47	1.855
419.67	1.859
419.88	1.869
420.08	1.862
420.28	1.856
420.49	1.860
420.69	1.864
420.89	1.859
421.10	1.873
421.30	1.862
421.50	1.860
421.71	1.847
421.91	1.850
422.11	1.851
422.32	1.859
422.52	1.859
422.72	1.868
422.93	1.878
423.13	1.891
423.33	1.901
423.54	1.905
423.74	1.909
423.94	1.918
424.15	1.909
424.35	1.908
424.55	1.913
424.76	1.917
424.96	1.912
425.16	1.907
425.36	1.894
425.57	1.883
425.77	1.872
425.97	1.886
426.18	1.891
426.38	1.894
426.58	1.882
426.79	1.883
426.99	1.881
427.19	1.877
427.39	1.865
427.60	1.863
427.80	1.868
428.00	1.893
428.21	1.877
428.41	1.879
428.61	1.896
428.82	1.897
429.02	1.888
429.22	1.901
429.42	1.894
429.63	1.909
429.83	1.915
430.03	1.900
430.24	1.889
430.44	1.899
430.64	1.886
430.84	1.885
431.05	1.886
431.25	1.894
431.45	1.879
431.65	1.873
431.86	1.877
432.06	1.888
432.26	1.907
432.47	1.916
432.67	1.913
432.87	1.927
433.07	1.925
433.28	1.941
433.48	1.951
433.68	1.945
433.88	1.957
434.09	1.964
434.29	1.959
434.49	1.948
434.69	1.934
434.90	1.918
435.10	1.907
435.30	1.910
435.51	1.911
435.71	1.905
435.91	1.929
436.11	1.922
436.32	1.907
436.52	1.914
436.72	1.934
436.92	1.944
437.13	1.953
437.33	1.958
437.53	1.942
437.73	1.928
437.93	1.932
438.14	1.935
438.34	1.936
438.54	1.945
438.74	1.943
438.95	1.932
439.15	1.945
439.35	1.951
439.55	1.946
439.76	1.961
439.96	1.979
440.16	1.981
440.36	1.979
440.56	1.974
440.77	1.961
440.97	1.961
441.17	1.967
441.37	1.956
441.58	1.967
441.78	1.989
441.98	1.982
442.18	1.968
442.38	1.955
442.59	1.947
442.79	1.957
442.99	1.987
443.19	1.982
443.40	1.999
443.60	2.007
443.80	1.996
444.00	1.978
444.20	1.987
444.41	1.972
444.61	1.985
444.81	1.991
445.01	1.997
445.21	1.983
445.42	1.992
445.62	1.978
445.82	1.972
446.02	1.975
446.22	1.967
446.43	1.959
446.63	1.962
446.83	1.965
447.03	1.959
447.23	1.961
447.44	1.960
447.64	1.954
447.84	1.953
448.04	1.958
448.24	1.950
448.44	1.965
448.65	1.968
448.85	1.979
449.05	1.977
449.25	1.974
449.45	1.983
449.65	1.990
449.86	2.000
450.06	2.014
450.26	2.017
450.46	2.024
450.66	2.023
450.87	2.035
451.07	2.043
451.27	2.032
451.47	2.055
451.67	2.050
451.87	2.058
452.08	2.044
452.28	2.029
452.48	2.022
452.68	2.036
452.88	2.034
453.08	2.021
453.28	2.021
453.49	2.035
453.69	2.028
453.89	2.018
454.09	2.011
454.29	2.024
454.49	2.036
454.70	2.041
454.90	2.021
455.10	2.018
455.30	2.025
455.50	2.037
455.70	2.022
455.90	2.027
456.11	2.028
456.31	2.029
456.51	2.026
456.71	2.018
456.91	2.035
457.11	2.052
457.31	2.061
457.51	2.063
457.72	2.052
457.92	2.062
458.12	2.046
458.32	2.050
458.52	2.064
458.72	2.070
458.92	2.067
459.12	2.057
459.33	2.052
459.53	2.062
459.73	2.080
459.93	2.077
460.13	2.079
460.33	2.094
460.53	2.085
460.73	2.060
460.93	2.059
461.14	2.070
461.34	2.078
461.54	2.077
461.74	2.068
461.94	2.058
462.14	2.062
462.34	2.063
462.54	2.053
462.74	2.056
462.95	2.077
463.15	2.083
463.35	2.077
463.55	2.071
463.75	2.076
463.95	2.081
464.15	2.078
464.35	2.088
464.55	2.077
464.75	2.080
464.95	2.099
465.16	2.101
465.36	2.088
465.56	2.085
465.76	2.102
465.96	2.106
466.16	2.113
466.36	2.111
466.56	2.092
466.76	2.095
466.96	2.110
467.16	2.098
467.36	2.091
467.57	2.099
467.77	2.108
467.97	2.095
468.17	2.092
468.37	2.073
468.57	2.083
468.77	2.097
468.97	2.098
469.17	2.084
469.37	2.094
469.57	2.103
469.77	2.115
469.97	2.116
470.17	2.123
470.37	2.125
470.57	2.135
470.78	2.119
470.98	2.124
471.18	2.133
471.38	2.136
471.58	2.137
471.78	2.144
471.98	2.134
472.18	2.149
472.38	2.150
472.58	2.165
472.78	2.187
472.98	2.205
473.18	2.204
473.38	2.207
473.58	2.211
473.78	2.213
473.98	2.214
474.18	2.231
474.38	2.217
474.58	2.224
474.78	2.220
474.98	2.217
475.18	2.228
475.38	2.237
475.58	2.247
475.79	2.242
475.99	2.245
476.19	2.257
476.39	2.249
476.59	2.251
476.79	2.255
476.99	2.252
477.19	2.252
477.39	2.235
477.59	2.236
477.79	2.228
477.99	2.230
478.19	2.223
478.39	2.222
478.59	2.227
478.79	2.232
478.99	2.235
479.19	2.239
479.39	2.242
479.59	2.263
479.79	2.264
479.99	2.276
480.19	2.285
480.39	2.291
480.59	2.288
480.79	2.291
480.99	2.298
481.19	2.295
481.39	2.296
481.59	2.295
481.79	2.296
481.99	2.297
482.19	2.302
482.39	2.312
482.59	2.319
482.79	2.322
482.99	2.332
483.19	2.357
483.39	2.402
483.59	2.436
483.79	2.444
483.99	2.432
484.19	2.422
484.39	2.418
484.58	2.418
484.78	2.422
484.98	2.425
485.18	2.427
485.38	2.420
485.58	2.388
485.78	2.353
485.98	2.343
486.18	2.352
486.38	2.370
486.58	2.383
486.78	2.386
486.98	2.388
487.18	2.399
